RamanShift	Intensity
190	2335.661
191	2306.604
192	2264.325
193	2226.125
194	2184.17
195	2148.266
196	2111.325
197	2076.971
198	2044.092
199	2001.766
200	1964.826
201	1921.19
202	1883.648
203	1844.098
204	1805.564
205	1771.803
206	1730.62
207	1696.98
208	1660.527
209	1633.312
210	1611.686
211	1597.477
212	1589.068
213	1573.269
214	1556.904
215	1536.922
216	1514.398
217	1479.25
218	1427.356
219	1376.327
220	1330.213
221	1299.443
222	1264.231
223	1234.439
224	1201.347
225	1163.503
226	1131.471
227	1096.86
228	1074.656
229	1057.732
230	1049.387
231	1029.301
232	988.1989
233	947.427
234	917.024
235	900.4207
236	878.3502
237	856.2116
238	829.693
239	798.4234
240	768.7775
241	733.8422
242	708.3462
243	688.3078
244	679.1302
245	666.3577
246	645.4118
247	619.6046
248	582.5276
249	548.6694
250	521.7978
251	508.3631
252	491.4084
253	467.1118
254	445.3482
255	423.9197
256	411.9874
257	404.6323
258	405.1978
259	404.0002
260	398.2194
261	389.5469
262	377.7455
263	364.5357
264	350.973
265	336.8895
266	313.8397
267	282.6284
268	249.1787
269	215.2935
270	188.2406
271	163.0437
272	145.9766
273	122.1932
274	93.99098
275	64.42096
276	34.09793
277	13.62925
278	-3.034981
279	-4.182134
280	3.447683
281	19.43081
282	32.00257
283	31.31467
284	27.86709
285	36.95891
286	45.29952
287	41.452
288	22.86814
289	-4.908156
290	-38.37679
291	-58.71925
292	-51.09411
293	-25.60946
294	-15.0211
295	-15.51348
296	-11.12221
297	1.086897
298	17.08356
299	36.42787
300	50.03651
301	53.30358
302	44.46079
303	34.87191
304	27.27006
305	24.31342
306	30.82615
307	32.50253
308	7.406784
309	-23.19357
310	-30.19409
311	-10.55852
312	7.577399
313	10.464
314	5.064817
315	-4.92751
316	-16.9981
317	-21.27445
318	-19.06289
319	-22.11685
320	-32.66462
321	-45.67766
322	-61.03076
323	-64.85756
324	-45.93121
325	-12.51568
326	10.92317
327	17.4153
328	16.34432
329	12.1254
330	3.926448
331	-2.646445
332	-7.260358
333	-11.95918
334	-12.67728
335	-6.389387
336	7.61946
337	33.05459
338	72.56586
339	107.9723
340	124.3427
341	124.2257
342	140.9498
343	172.2327
344	194.3551
345	195.8452
346	186.8401
347	185.7014
348	182.9823
349	177.6542
350	168.6809
351	152.8054
352	131.7035
353	108.3576
354	83.53304
355	69.97668
356	71.81294
357	86.47425
358	89.58031
359	81.06641
360	79.14112
361	91.03044
362	102.0625
363	102.0843
364	93.78114
365	83.56773
366	71.86064
367	60.72187
368	52.11978
369	39.34558
370	18.66162
371	0.5213662
372	-12.59415
373	-15.66972
374	-16.80613
375	-12.84627
376	-4.789227
377	5.821781
378	13.8524
379	14.66633
380	12.68498
381	17.42762
382	23.43497
383	25.25236
384	22.02945
385	18.69372
386	17.41389
387	14.85615
388	7.533441
389	2.125957
390	5.305087
391	12.91119
392	11.97491
393	1.345227
394	-6.1398
395	-4.533644
396	-1.75202
397	-5.183265
398	-10.76426
399	-18.13502
400	-22.58136
401	-18.25361
402	-3.360878
403	18.08593
404	42.34394
405	66.38013
406	93.6102
407	114.1456
408	132.5683
409	140.7932
410	143.6717
411	139.6134
412	130.8439
413	120.522
414	111.7818
415	106.3066
416	106.572
417	108.6244
418	113.5705
419	118.9447
420	123.8645
421	130.2514
422	139.0611
423	147.1708
424	156.4299
425	161.024
426	162.8393
427	157.5905
428	144.3567
429	124.1161
430	95.75407
431	62.5102
432	34.28563
433	14.34913
434	7.770415
435	-2.039032
436	-6.4531
437	-2.368294
438	10.60335
439	25.35125
440	35.67684
441	42.14005
442	49.58064
443	49.84505
444	40.48605
445	25.4042
446	18.10091
447	21.80373
448	27.64564
449	31.29107
450	34.6868
451	36.3857
452	39.87877
453	51.97103
454	66.5118
455	72.64645
456	69.55652
457	72.5265
458	86.74768
459	106.2771
460	127.8082
461	146.7818
462	168.1209
463	179.9797
464	180.8472
465	170.437
466	168.2556
467	178.6022
468	182.5275
469	166.8794
470	156.3013
471	171.397
472	203.72
473	240.3546
474	271.6707
475	291.6819
476	293.7108
477	293.2197
478	298.0607
479	309.0078
480	332.4072
481	357.6803
482	376.8717
483	387.9866
484	405.0035
485	423.0921
486	440.2641
487	452.9455
488	456.0233
489	450.1498
490	432.5375
491	407.5338
492	380.1325
493	355.3257
494	339.0775
495	318.8097
496	298.6321
497	282.6099
498	273.2672
499	268.9221
500	262.1987
501	259.2745
502	256.4316
503	258.581
504	268.652
505	283.1696
506	289.8302
507	284.2008
508	279.3292
509	283.7048
510	288.2336
511	288.9649
512	282.5899
513	267.9344
514	246.74
515	218.7551
516	193.692
517	190.6379
518	216.0456
519	239.7912
520	238.0029
521	227.5034
522	225.933
523	226.3002
524	223.664
525	221.5066
526	224.7288
527	234.215
528	247.1598
529	260.5389
530	280.147
531	309.08
532	339.8206
533	378.0514
534	405.5496
535	424.602
536	425.4414
537	421.0249
538	409.5507
539	389.7179
540	363.4925
541	332.2694
542	295.9733
543	265.3624
544	231.2386
545	215.0399
546	214.9054
547	232.7835
548	246.639
549	251.26
550	252.8382
551	251.4421
552	242.8587
553	227.3705
554	205.004
555	174.3809
556	143.8175
557	112.5419
558	89.70754
559	71.3632
560	62.16691
561	47.01191
562	24.77167
563	11.95039
564	15.03293
565	28.02131
566	38.09406
567	48.90002
568	60.76137
569	70.40522
570	81.82349
571	90.17556
572	91.42841
573	83.35042
574	71.15388
575	58.63196
576	44.2867
577	26.55333
578	13.61154
579	5.210907
580	6.280631
581	10.90841
582	19.91945
583	28.8955
584	35.83854
585	43.1219
586	50.22284
587	58.64768
588	70.99271
589	78.79028
590	79.23981
591	71.96436
592	63.06315
593	54.23269
594	49.23067
595	49.39967
596	48.32981
597	46.10545
598	48.60018
599	57.63532
600	65.36348
601	65.77053
602	63.19815
603	65.53189
604	66.31676
605	59.47818
606	49.12444
607	43.22319
608	44.62526
609	51.16213
610	61.79598
611	70.11989
612	72.18798
613	69.5239
614	63.10246
615	60.18822
616	70.066
617	86.74436
618	101.163
619	108.0025
620	103.6763
621	89.81055
622	86.27297
623	97.48068
624	101.3611
625	88.06261
626	71.22378
627	60.2707
628	58.30115
629	66.10268
630	80.37697
631	89.5991
632	91.30769
633	86.1572
634	74.8036
635	65.73271
636	61.35213
637	51.81155
638	34.73116
639	23.69924
640	26.95974
641	36.62408
642	39.47714
643	44.1208
644	57.88732
645	75.60192
646	96.34662
647	111.4235
648	113.8829
649	100.0659
650	80.7902
651	61.71964
652	49.51778
653	49.75994
654	45.7988
655	18.40099
656	-5.803229
657	-7.939055
658	5.225848
659	11.3645
660	13.23134
661	12.40117
662	11.74866
663	22.76354
664	45.74264
665	66.34437
666	77.65984
667	86.65296
668	96.32335
669	114.3499
670	152.9628
671	188.5266
672	208.1133
673	210.5982
674	220.5821
675	229.0142
676	237.5778
677	238.659
678	221.8866
679	187.0149
680	149.1058
681	120.1161
682	99.25264
683	88.7919
684	79.10886
685	52.5826
686	29.45944
687	18.05488
688	22.91964
689	30.274
690	45.3275
691	70.72768
692	98.35297
693	115.6826
694	117.5209
695	125.9998
696	143.9123
697	144.0343
698	116.2345
699	80.74791
700	56.19503
701	42.22493
702	31.33096
703	32.04152
704	37.20343
705	45.38411
706	42.3885
707	36.00392
708	47.21991
709	73.12214
710	93.28656
711	100.5782
712	107.6381
713	116.9701
714	125.397
715	132.8372
716	137.2324
717	141.7359
718	135.8662
719	114.8512
720	87.66965
721	65.28247
722	52.45188
723	42.08036
724	38.71009
725	33.71864
726	29.00548
727	22.57834
728	16.8313
729	19.52286
730	32.55164
731	39.26916
732	31.18175
733	20.11803
734	14.90618
735	12.16593
736	9.441727
737	7.648928
738	3.530135
739	0.1658878
740	-2.644739
741	-1.829613
742	5.875229
743	16.6328
744	20.74887
745	15.7957
746	8.24653
747	1.221107
748	1.08193
749	10.88712
750	23.64221
751	33.21907
752	43.14036
753	55.40265
754	67.09666
755	80.74139
756	92.0338
757	109.9971
758	116.9521
759	99.27808
760	70.00562
761	57.97692
762	68.73087
763	92.4114
764	123.7983
765	149.1972
766	162.9686
767	194.6236
768	246.7353
769	307.9327
770	365.6399
771	410.106
772	440.3851
773	453.9179
774	468.1609
775	474.4009
776	487.1642
777	492.6011
778	485.4056
779	472.9897
780	474.6841
781	483.0023
782	479.1257
783	465.5356
784	457.1113
785	451.8909
786	431.1953
787	394.1789
788	346.449
789	298.5901
790	253.489
791	220.1421
792	199.34
793	187.5017
794	185.4714
795	182.2086
796	186.0013
797	195.9156
798	206.0136
799	211.0977
800	205.3118
801	190.4523
802	164.8291
803	131.2103
804	97.17898
805	61.58111
806	36.00478
807	13.05106
808	3.710149
809	8.764739
810	30.99144
811	63.42988
812	99.23158
813	140.8587
814	181.7102
815	213.7497
816	231.9229
817	236.5374
818	235.4882
819	224.5826
820	209.7966
821	195.2569
822	185.2901
823	184.44
824	186.8461
825	199.725
826	223.3317
827	252.0435
828	281.1093
829	305.0237
830	334.8123
831	358.9065
832	376.8739
833	381.7586
834	382.2212
835	381.8481
836	398.0067
837	434.765
838	482.9107
839	534.0909
840	590.0998
841	644.9863
842	703.5986
843	767.7326
844	828.1613
845	885.9298
846	929.5142
847	970.9191
848	992.1451
849	1005.363
850	993.1791
851	968.6843
852	922.8768
853	856.4813
854	787.8299
855	719.0013
856	666.3621
857	605.672
858	562.847
859	536.1304
860	527.9375
861	495.7651
862	449.852
863	403.2376
864	370.2877
865	339.7889
866	321.1035
867	308.7647
868	305.0202
869	301.6411
870	295.7833
871	288.7236
872	280.0661
873	265.3877
874	243.2755
875	214.1118
876	180.649
877	152.7968
878	137.2096
879	131.1395
880	125.0572
881	122.9144
882	119.8484
883	114.7975
884	101.6158
885	90.2546
886	89.3375
887	94.11257
888	89.50527
889	86.7457
890	96.12775
891	114.7819
892	137.0661
893	158.4664
894	179.528
895	196.2601
896	219.878
897	242.3042
898	260.0607
899	268.3457
900	279.9447
901	290.175
902	295.0047
903	292.3377
904	289.2581
905	286.2319
906	278.8271
907	266.8603
908	250.3944
909	231.6414
910	207.2493
911	180.6324
912	159.9824
913	150.7725
914	141.5606
915	126.8391
916	112.7219
917	101.2595
918	92.05966
919	83.90685
920	76.3931
921	67.41335
922	55.55251
923	36.34693
924	26.74207
925	37.10038
926	53.85781
927	60.17796
928	58.52845
929	51.02498
930	43.24887
931	44.29126
932	50.27946
933	55.10512
934	58.14175
935	54.99103
936	55.07456
937	75.44796
938	97.07689
939	97.0999
940	77.95163
941	56.38891
942	34.81123
943	14.37124
944	3.320144
945	-4.578967
946	-3.51268
947	-0.1030073
948	8.549621
949	24.66629
950	40.64269
951	47.08163
952	41.6325
953	36.08911
954	30.68723
955	24.38812
956	21.0648
957	24.11259
958	34.6513
959	49.17392
960	65.17608
961	85.66508
962	106.2993
963	126.5751
964	140.7695
965	148.4362
966	147.1439
967	145.9271
968	144.5005
969	133.761
970	115.4815
971	100.7278
972	95.20264
973	89.24135
974	82.28352
975	73.90944
976	64.78606
977	50.87418
978	34.36605
979	28.97021
980	39.54435
981	54.48739
982	67.20681
983	79.70285
984	89.70493
985	94.88613
986	93.61844
987	86.34759
988	74.71401
989	57.41956
990	38.31384
991	26.75916
992	29.2793
993	41.78386
994	59.33961
995	75.19484
996	82.64509
997	97.86604
998	126.0117
999	156.6383
1000	181.6218
1001	200.088
1002	209.0979
1003	196.9388
1004	163.0335
1005	123.5015
1006	93.28905
1007	62.04103
1008	29.16692
1009	8.036169
1010	4.019598
1011	6.682786
1012	7.591473
1013	14.40607
1014	26.75147
1015	27.83026
1016	9.831646
1017	-1.927121
1018	5.98035
1019	13.64762
1020	11.49936
1021	14.51105
1022	27.80306
1023	36.8432
1024	34.37575
1025	29.76992
1026	28.28312
1027	32.49271
1028	43.7141
1029	60.26255
1030	78.48563
1031	87.36034
1032	81.25394
1033	75.94093
1034	80.24415
1035	88.80671
1036	99.51479
1037	111.4642
1038	122.6211
1039	147.6377
1040	187.8217
1041	225.9324
1042	248.2741
1043	265.5645
1044	278.555
1045	286.4767
1046	290.6826
1047	302.7782
1048	324.0324
1049	342.5444
1050	351.3239
1051	353.9031
1052	349.8425
1053	338.935
1054	324.2156
1055	309.3875
1056	300.3269
1057	297.7537
1058	303.4968
1059	312.5149
1060	321.64
1061	329.9963
1062	334.848
1063	337.5301
1064	336.6308
1065	333.6955
1066	327.8368
1067	313.9949
1068	297.5153
1069	289.7805
1070	293.7888
1071	294.637
1072	295.9991
1073	309.1845
1074	333.0031
1075	361.2039
1076	384.4505
1077	400.6752
1078	406.6955
1079	421.3072
1080	437.3487
1081	450.9278
1082	455.8066
1083	453.4458
1084	447.4456
1085	455.1381
1086	466.3817
1087	469.0177
1088	456.4338
1089	421.3237
1090	388.6032
1091	386.8182
1092	408.6654
1093	425.1372
1094	434.2517
1095	430.2854
1096	418.6975
1097	412.6409
1098	409.8192
1099	410.3628
1100	405.0654
1101	381.203
1102	364.575
1103	374.8445
1104	394.8148
1105	407.5087
1106	410.9184
1107	402.3881
1108	389.1948
1109	379.2295
1110	378.698
1111	391.1234
1112	403.3011
1113	406.2089
1114	398.198
1115	379.6354
1116	361.0556
1117	349.8722
1118	339.7492
1119	332.1198
1120	329.6754
1121	335.3156
1122	352.1933
1123	376.0369
1124	396.1252
1125	401.7667
1126	386.4595
1127	355.6855
1128	343.9157
1129	350.1544
1130	345.425
1131	332.3572
1132	315.1944
1133	302.7693
1134	303.279
1135	311.4131
1136	306.1795
1137	293.7478
1138	281.8609
1139	273.5523
1140	270.6954
1141	268.6328
1142	257.6681
1143	241.2401
1144	218.4285
1145	204.5045
1146	208.3355
1147	214.5285
1148	206.4757
1149	196.0092
1150	190.0979
1151	178.5114
1152	158.5848
1153	133.734
1154	109.9019
1155	87.83469
1156	73.50003
1157	67.90641
1158	72.9585
1159	81.24445
1160	88.96767
1161	95.64735
1162	96.76262
1163	89.50189
1164	73.33497
1165	52.81931
1166	32.1304
1167	9.364122
1168	-3.342091
1169	-2.361677
1170	15.2824
1171	38.39934
1172	63.07467
1173	89.10975
1174	101.0943
1175	95.74194
1176	78.0909
1177	65.44378
1178	51.66939
1179	34.38486
1180	28.3825
1181	39.59608
1182	56.81874
1183	69.61308
1184	81.75626
1185	91.35281
1186	96.15489
1187	94.63043
1188	88.40518
1189	80.13355
1190	75.83826
1191	78.60365
1192	86.15738
1193	96.83
1194	105.5328
1195	112.517
1196	125.1699
1197	139.9003
1198	158.8721
1199	169.4514
1200	166.4318
1201	151.2674
1202	133.6883
1203	126.4921
1204	142.1032
1205	158.9207
1206	155.3915
1207	154.9611
1208	169.2901
1209	189.9054
1210	210.7446
1211	227.5815
1212	233.711
1213	222.9617
1214	198.3905
1215	187.9805
1216	195.7059
1217	201.6494
1218	205.4017
1219	207.6789
1220	211.698
1221	228.3104
1222	244.474
1223	244.4466
1224	234.8824
1225	233.5962
1226	231.6247
1227	221.9513
1228	221.2545
1229	240.119
1230	254.0377
1231	247.7691
1232	251.9107
1233	276.5357
1234	299.0054
1235	312.0748
1236	345.6747
1237	390.7601
1238	421.0798
1239	425.8094
1240	429.0951
1241	421.0271
1242	396.3585
1243	368.2038
1244	358.6101
1245	362.7413
1246	361.4
1247	362.6297
1248	366.3186
1249	373.1608
1250	382.2948
1251	385.1854
1252	377.4238
1253	369.9775
1254	368.9096
1255	378.4084
1256	396.2128
1257	408.025
1258	403.9893
1259	377.6141
1260	338.6111
1261	314.9204
1262	301.9331
1263	268.9789
1264	240.5426
1265	225.5508
1266	226.3415
1267	229.5063
1268	244.7223
1269	271.7128
1270	284.1152
1271	268.468
1272	256.9915
1273	260.1606
1274	255.9554
1275	245.5197
1276	249.5888
1277	264.5074
1278	264.0193
1279	259.1167
1280	282.8799
1281	309.3539
1282	303.5207
1283	282.5329
1284	274.5656
1285	263.6335
1286	241.7914
1287	226.3403
1288	225.5207
1289	216.4675
1290	195.1876
1291	186.7172
1292	196.2565
1293	202.8031
1294	206.9765
1295	218.1031
1296	232.8016
1297	248.3428
1298	259.9145
1299	271.5859
1300	273.9427
1301	266.9637
1302	252.4952
1303	236.747
1304	216.3232
1305	193.958
1306	175.1518
1307	167.5081
1308	170.3935
1309	184.1089
1310	200.0467
1311	211.5009
1312	212.035
1313	205.1156
1314	209.5171
1315	207.3547
1316	183.6513
1317	155.3339
1318	136.8345
1319	121.8926
1320	108.3592
1321	99.09383
1322	96.13375
1323	94.96707
1324	95.50761
1325	96.73309
1326	96.08744
1327	87.27315
1328	76.92937
1329	75.11687
1330	78.34349
1331	79.20486
1332	81.12405
1333	84.43483
1334	90.87422
1335	98.52603
1336	89.8614
1337	66.30857
1338	58.16773
1339	70.91774
1340	86.79649
1341	103.9468
1342	122.4675
1343	136.3396
1344	146.2272
1345	152.0692
1346	160.5743
1347	162.3476
1348	155.1905
1349	151.0197
1350	153.4917
1351	148.1437
1352	135.2431
1353	127.9909
1354	122.4775
1355	100.8619
1356	73.29586
1357	49.77599
1358	31.11314
1359	9.715907
1360	2.693505
1361	15.77959
1362	41.94866
1363	72.7403
1364	109.8022
1365	139.9607
1366	158.4389
1367	154.4054
1368	142.67
1369	116.7538
1370	74.45473
1371	43.24983
1372	42.9172
1373	59.64294
1374	76.83766
1375	89.86868
1376	91.32102
1377	82.30003
1378	67.48661
1379	68.21461
1380	72.37866
1381	43.4072
1382	6.650028
1383	-8.118751
1384	-3.202112
1385	11.50854
1386	24.92035
1387	27.17695
1388	33.86528
1389	48.49646
1390	74.20901
1391	100.7297
1392	111.5338
1393	110.5161
1394	127.8547
1395	142.2554
1396	141.0419
1397	126.3505
1398	104.6723
1399	86.46081
1400	79.25966
1401	68.69811
1402	60.70117
1403	70.09365
1404	95.21706
1405	125.0136
1406	146.552
1407	149.8203
1408	145.5877
1409	149.3883
1410	151.3462
1411	149.4361
1412	146.1068
1413	143.7119
1414	145.6376
1415	154.2495
1416	168.9348
1417	188.3166
1418	210.0793
1419	230.732
1420	248.4129
1421	262.6227
1422	271.3629
1423	270.7805
1424	261.392
1425	253.0449
1426	253.0365
1427	267.4384
1428	290.1801
1429	307.1822
1430	324.1883
1431	345.6819
1432	359.4392
1433	360.7624
1434	357.6357
1435	352.7043
1436	350.8049
1437	350.6485
1438	345.6226
1439	341.7259
1440	344.0147
1441	350.2329
1442	357.0015
1443	367.6551
1444	379.7054
1445	382.2288
1446	378.2925
1447	393.2181
1448	416.0872
1449	425.9977
1450	430.7169
1451	443.507
1452	450.5073
1453	447.9709
1454	465.6516
1455	502.4906
1456	514.1852
1457	500.299
1458	501.5607
1459	505.6116
1460	499.6929
1461	487.4146
1462	474.0861
1463	434.455
1464	372.162
1465	330.9943
1466	324.6913
1467	311.402
1468	302.5793
1469	295.2822
1470	304.9282
1471	336.3056
1472	368.5697
1473	381.5616
1474	367.1289
1475	328.1504
1476	296.6169
1477	279.7661
1478	264.8895
1479	249.4303
1480	216.9734
1481	186.1224
1482	168.9157
1483	153.9608
1484	140.0183
1485	124.8508
1486	112.0298
1487	95.66273
1488	88.0685
1489	94.82552
1490	102.4826
1491	96.552
1492	85.03046
1493	72.29578
1494	63.71378
1495	57.95692
1496	39.54285
1497	17.01054
1498	-3.529412
1499	-7.706617
1500	8.80691
1501	39.55906
1502	72.06434
1503	99.26931
1504	111.5345
1505	122.2608
1506	125.7587
1507	131.1456
1508	126.8212
1509	110.317
1510	93.47711
1511	85.60722
1512	84.62172
1513	89.15551
1514	85.42585
1515	81.76627
1516	86.06483
1517	106.8199
1518	144.9361
1519	172.2038
1520	174.0971
1521	165.2702
1522	149.7386
1523	141.3606
1524	137.0105
1525	129.7258
1526	116.2231
1527	94.78512
1528	82.25262
1529	82.75445
1530	71.41031
1531	55.87147
1532	51.37157
1533	58.98029
1534	70.58326
1535	93.45338
1536	123.9164
1537	140.3858
1538	135.0544
1539	129.0191
1540	121.9614
1541	115.1802
1542	111.2559
1543	110.3502
1544	119.5173
1545	137.8184
1546	150.9768
1547	155.1722
1548	164.7543
1549	167.4965
1550	153.8208
1551	142.6018
1552	148.108
1553	145.7501
1554	132.6006
1555	132.2202
1556	136.2728
1557	116.112
1558	94.70523
1559	94.20242
1560	94.86658
1561	89.55647
1562	100.2534
1563	124.2722
1564	140.0983
1565	144.1644
1566	142.884
1567	136.0011
1568	128.9231
1569	117.6279
1570	104.3423
1571	86.93057
1572	78.29816
1573	90.99425
1574	106.2502
1575	99.85372
1576	91.55303
1577	89.52776
1578	84.41375
1579	78.07299
1580	72.62142
1581	72.15308
1582	75.52408
1583	93.97271
1584	128.0061
1585	154.949
1586	163.8931
1587	172.9041
1588	168.8671
1589	146.8333
1590	119.5394
1591	102.5419
1592	91.246
1593	89.26533
1594	92.34652
1595	106.4819
1596	136.327
1597	165.8584
1598	180.4227
1599	188.5812
1600	189.7965
1601	178.4667
1602	155.8992
1603	131.6037
1604	105.8689
1605	77.64009
1606	64.31053
1607	70.32544
1608	65.81542
1609	56.07647
1610	60.79763
1611	75.00626
1612	88.62748
1613	95.95775
1614	93.31124
1615	90.02993
1616	88.85716
1617	92.00392
1618	96.03379
1619	95.6032
1620	97.13085
1621	102.8005
1622	106.7343
1623	102.1391
1624	78.1263
1625	50.58885
1626	38.49037
1627	35.6693
1628	37.09065
1629	38.94802
1630	39.77934
1631	41.07944
1632	37.94047
1633	26.19576
1634	13.66265
1635	7.329444
1636	10.17648
1637	23.36493
1638	41.30099
1639	59.98514
1640	77.45748
1641	82.17853
1642	71.1115
1643	52.07668
1644	33.71397
1645	23.99943
1646	19.35591
1647	7.841097
1648	2.78362
1649	10.24836
1650	33.46092
1651	59.82545
1652	62.53872
1653	56.13605
1654	63.86224
1655	69.24106
1656	66.90036
1657	60.64835
1658	55.04276
1659	56.47881
1660	64.05569
1661	74.02511
1662	74.82673
1663	65.47057
1664	65.81174
1665	70.69468
1666	67.1955
1667	55.53464
1668	39.03815
1669	34.265
1670	45.1991
1671	56.40144
1672	58.60052
1673	42.84118
1674	24.41809
1675	16.37992
1676	15.16512
1677	18.8504
1678	13.50559
1679	9.917656
1680	17.48664
1681	36.33592
1682	59.43838
1683	61.92243
1684	47.01126
1685	44.80321
1686	43.12949
1687	35.49981
1688	32.84301
1689	36.58776
1690	34.49068
1691	34.60992
1692	48.17189
1693	60.40163
1694	62.91631
1695	72.97181
1696	86.35393
1697	89.94164
1698	91.10074
1699	101.2036
1700	110.4502
1701	114.3638
1702	116.3912
1703	115.1115
1704	111.5114
1705	110.933
1706	117.2358
1707	126.7244
1708	133.1205
1709	127.5282
1710	114.6387
1711	105.7142
1712	104.6381
1713	112.8689
1714	120.2076
1715	128.2798
1716	147.2733
1717	162.5016
1718	163.383
1719	147.7036
1720	120.3366
1721	98.72392
1722	86.11376
1723	76.88829
1724	75.3241
1725	80.01366
1726	87.13205
1727	89.94437
1728	79.6677
1729	64.76717
1730	55.87257
1731	59.81376
1732	74.67088
1733	84.44443
1734	86.68027
1735	82.99305
1736	75.86135
1737	70.58483
1738	77.08129
1739	87.45064
1740	83.36552
1741	86.03619
1742	104.6282
1743	119.9887
1744	119.8119
1745	99.3823
1746	73.91109
1747	64.50535
1748	67.19041
1749	79.41798
1750	92.303
1751	95.90097
1752	83.06794
1753	67.84264
1754	58.73403
1755	45.98824
1756	34.64585
1757	27.91757
1758	19.29696
1759	5.716158
1760	10.85379
1761	26.82353
1762	18.57695
1763	2.281516
1764	-3.794744
1765	5.478131
1766	30.23114
1767	61.52794
1768	85.50464
1769	92.24239
1770	103.6787
1771	124.1145
1772	130.5179
1773	115.7269
1774	83.50493
1775	63.24739
1776	71.48553
1777	73.58509
1778	66.64943
1779	54.10009
1780	43.11448
1781	38.46897
1782	25.98248
1783	11.27081
1784	4.951731
1785	15.44987
1786	40.8508
1787	70.88075
1788	97.42404
1789	130.7715
1790	152.5462
1791	155.6407
1792	144.4242
1793	126.7687
1794	117.0649
1795	105.5969
1796	73.41302
1797	56.02403
1798	66.59759
1799	79.46323
1800	94.21787
1801	111.8713
1802	116.6226
1803	103.6775
1804	92.57906
1805	80.19025
1806	54.85251
1807	26.96964
1808	5.188382
1809	-7.298046
1810	-2.71649
1811	13.44267
1812	36.001
1813	54.65012
1814	68.45207
1815	76.07248
1816	93.67216
1817	99.72871
1818	87.63482
1819	93.4008
1820	113.8302
1821	117.7071
1822	118.5157
1823	127.0938
1824	126.5044
1825	120.401
1826	131.7563
1827	140.3861
1828	131.3362
1829	124.7205
1830	122.0756
1831	109.11
1832	98.77812
1833	100.2227
1834	98.64815
1835	97.29922
1836	114.5835
1837	127.7089
1838	117.7643
1839	109.4966
1840	107.7657
1841	103.2253
1842	102.2534
1843	107.1712
1844	104.0482
1845	94.84348
1846	95.98764
1847	98.48499
1848	94.30692
1849	105.639
1850	125.2029
1851	126.0069
1852	113.814
1853	100.0376
1854	93.20753
1855	97.98279
1856	109.2675
1857	120.7706
1858	124.6231
1859	131.3107
1860	138.332
1861	143.0643
1862	137.7134
1863	122.7154
1864	118.3635
1865	121.8943
1866	113.9884
1867	102.7372
1868	94.08161
1869	92.06502
1870	99.51935
1871	114.1134
1872	125.1852
1873	123.8722
1874	111.0583
1875	93.04992
1876	81.60488
1877	69.98026
1878	58.81485
1879	55.66209
1880	66.30987
1881	87.99109
1882	115.7666
1883	137.1759
1884	137.9356
1885	127.6599
1886	128.5786
1887	120.3656
1888	103.2235
1889	89.3048
1890	76.14259
1891	60.30275
1892	57.66677
1893	68.13293
1894	73.421
1895	72.44054
1896	65.97947
1897	71.65585
1898	86.35715
1899	96.56419
1900	97.37334
1901	87.55322
1902	76.11858
1903	69.88878
1904	74.04041
1905	74.67351
1906	67.48635
1907	64.81641
1908	66.90486
1909	70.889
1910	92.11784
1911	121.2048
1912	127.2424
1913	124.217
1914	130.9783
1915	131.3299
1916	120.5303
1917	100.0108
1918	73.63023
1919	51.88243
1920	51.84245
1921	66.3912
1922	65.99416
1923	69.87689
1924	80.10348
1925	80.30414
1926	78.90176
1927	87.92278
1928	105.8338
1929	123.8703
1930	132.0072
1931	129.3106
1932	122.1512
1933	121.0818
1934	114.4531
1935	77.0397
1936	43.35649
1937	37.6185
1938	50.64631
1939	67.67255
1940	61.22572
1941	59.40143
1942	69.10096
1943	83.83945
1944	88.75758
1945	75.01321
1946	55.55296
1947	42.0601
1948	42.07145
1949	50.04626
1950	58.87761
1951	70.0628
1952	81.28038
1953	91.82692
1954	89.2042
1955	71.39669
1956	47.62708
1957	34.68803
1958	44.36684
1959	61.15038
1960	77.43462
1961	87.26959
1962	96.60963
1963	101.4323
1964	79.21445
1965	47.10242
1966	30.75475
1967	23.89713
1968	23.2037
1969	8.118791
1970	1.282415
1971	11.83613
1972	18.95225
1973	26.54903
1974	42.09803
1975	58.37236
1976	70.29652
1977	83.0447
1978	90.61578
1979	92.02254
1980	88.93688
1981	74.57258
1982	42.78072
1983	24.8102
1984	33.12838
1985	42.59807
1986	51.3988
1987	54.61406
1988	63.65401
1989	68.68721
1990	53.92742
1991	30.34899
1992	12.7952
1993	13.96766
1994	29.27652
1995	43.1356
1996	53.41982
1997	58.49567
1998	66.70318
1999	70.58079
2000	69.10289
2001	69.70309
2002	70.81059
2003	70.51881
2004	57.87539
2005	36.29453
2006	18.28609
2007	10.51743
2008	13.09226
2009	4.800698
2010	-1.476312
2011	6.891005
2012	21.23271
2013	33.79456
2014	38.40678
2015	29.99762
2016	16.00118
2017	29.57309
2018	41.33585
2019	19.48615
2020	10.8417
2021	20.01394
2022	25.11382
2023	39.43436
2024	60.43132
2025	70.74163
2026	75.82912
2027	84.36719
2028	69.34348
2029	42.76878
2030	37.82998
2031	28.74973
2032	16.28692
2033	33.65773
2034	59.72898
2035	70.46374
2036	86.97366
2037	94.07836
2038	76.47262
2039	54.75043
2040	42.67235
2041	39.08835
2042	39.84442
2043	38.20795
2044	36.16378
2045	44.59349
2046	71.15344
2047	81.34465
2048	68.64978
2049	53.49923
2050	52.13892
2051	67.95012
2052	69.06676
2053	64.17101
2054	63.72504
2055	58.05825
2056	43.96403
2057	19.75565
2058	4.678978
2059	4.698991
2060	-0.9917898
2061	10.51085
2062	42.53939
2063	72.58427
2064	92.9363
2065	104.9511
2066	96.62791
2067	79.78631
2068	85.66473
2069	87.33131
2070	78.12517
2071	76.6169
2072	73.04283
2073	61.12604
2074	43.23855
2075	22.67118
2076	1.630808
2077	-3.274425
2078	14.05539
2079	45.7508
2080	67.18732
2081	64.27405
2082	52.58544
2083	41.59061
2084	43.80713
2085	55.96923
2086	79.67515
2087	110.0824
2088	139.5528
2089	154.5431
2090	156.0136
2091	132.3787
2092	97.52543
2093	84.55384
2094	76.09245
2095	61.17186
2096	73.02677
2097	94.88297
2098	99.18228
2099	103.0467
2100	100.129
2101	82.29576
2102	66.96623
2103	56.87238
2104	28.3363
2105	13.87554
2106	24.49862
2107	24.92449
2108	30.66178
2109	49.73927
2110	59.16927
2111	54.1401
2112	41.46318
2113	29.13336
2114	27.30097
2115	39.9662
2116	50.50389
2117	54.12892
2118	74.16959
2119	82.33125
2120	65.91333
2121	43.96576
2122	29.66581
2123	34.94587
2124	58.8661
2125	82.62463
2126	79.90587
2127	83.87551
2128	92.24798
2129	86.0126
2130	75.37655
2131	66.7466
2132	55.67158
2133	53.36151
2134	60.21353
2135	54.60389
2136	50.52731
2137	57.77349
2138	49.81127
2139	34.54242
2140	28.34959
2141	29.48256
2142	35.31454
2143	37.38055
2144	43.54989
2145	50.6585
2146	51.41108
2147	37.52005
2148	16.62743
2149	14.18238
2150	18.66248
2151	18.10203
2152	11.25131
2153	9.941799
2154	22.03341
2155	28.2218
2156	34.36872
2157	50.48363
2158	66.51791
2159	72.46796
2160	64.49323
2161	46.52706
2162	28.86219
2163	22.61276
2164	15.50498
2165	8.479789
2166	14.17774
2167	25.7611
2168	34.609
2169	39.56068
2170	36.79542
2171	30.4129
2172	38.18758
2173	49.00169
2174	50.06059
2175	52.40595
2176	57.69627
2177	65.63049
2178	58.14526
2179	39.84512
2180	27.18725
2181	36.62652
2182	56.1795
2183	51.76523
2184	52.64633
2185	61.92372
2186	65.42312
2187	56.79459
2188	40.40048
2189	31.02372
2190	34.93139
2191	47.45897
2192	46.57961
2193	45.07174
2194	50.11802
2195	49.92642
2196	46.21432
2197	40.89651
2198	26.34363
2199	13.83636
2200	14.1606
2201	14.10682
2202	21.19359
2203	39.123
2204	47.07869
2205	46.67231
2206	50.69592
2207	44.6343
2208	37.25152
2209	45.8588
2210	37.00646
2211	20.93205
2212	31.94261
2213	44.12267
2214	49.06237
2215	51.82259
2216	54.57279
2217	58.48919
2218	65.95007
2219	52.62933
2220	22.1003
2221	6.594356
2222	6.932269
2223	15.08798
2224	6.095635
2225	2.03798
2226	14.2752
2227	37.40376
2228	55.38366
2229	59.26696
2230	69.47271
2231	79.94859
2232	86.30661
2233	83.10495
2234	84.33444
2235	98.24081
2236	108.0056
2237	111.7832
2238	108.7597
2239	94.41337
2240	72.11383
2241	50.71249
2242	30.66489
2243	26.07276
2244	37.6931
2245	36.7111
2246	42.42527
2247	68.12241
2248	73.13004
2249	69.45139
2250	76.72509
2251	75.53587
2252	68.14716
2253	61.43649
2254	51.68861
2255	48.26825
2256	55.83609
2257	53.33025
2258	48.80564
2259	52.99609
2260	49.97865
2261	39.86426
2262	29.15142
2263	27.85295
2264	37.52126
2265	51.28312
2266	66.33781
2267	74.65987
2268	72.98165
2269	69.45936
2270	65.36809
2271	63.26999
2272	67.15234
2273	79.03513
2274	95.49464
2275	112.6014
2276	114.3229
2277	94.5294
2278	74.45994
2279	66.00518
2280	73.2011
2281	77.90479
2282	86.00627
2283	102.0679
2284	125.7363
2285	140.7594
2286	135.1606
2287	115.6151
2288	92.54955
2289	78.18361
2290	56.61513
2291	47.10896
2292	59.03809
2293	75.49895
2294	89.29797
2295	93.49605
2296	95.59976
2297	90.96553
2298	85.4567
2299	96.65955
2300	122.0117
2301	145.8724
2302	152.7153
2303	138.6079
2304	112.9974
2305	88.0593
2306	66.59504
2307	58.12033
2308	72.06046
2309	91.21118
2310	99.84959
2311	95.16659
2312	94.21377
2313	99.37875
2314	97.85476
2315	108.4674
2316	125.2626
2317	127.953
2318	124.1696
2319	117.0451
2320	111.3402
2321	109.5122
2322	118.7934
2323	139.7436
2324	138.5588
2325	125.4462
2326	123.5773
2327	119.389
2328	104.6794
2329	78.46903
2330	66.55399
2331	55.4697
2332	32.48478
2333	2.9632
2334	2.103015
2335	40.05221
2336	82.24668
2337	107.678
2338	110.5992
2339	129.071
2340	122.9302
2341	96.69606
2342	93.14778
2343	95.50591
2344	105.4281
2345	129.7236
2346	151.261
2347	157.4487
2348	147.887
2349	138.9719
2350	131.7564
2351	123.7633
2352	119.7327
2353	119.1205
2354	119.0528
2355	122.5994
2356	121.0129
2357	110.3183
2358	99.77737
2359	94.9462
2360	102.0859
2361	126.5078
2362	135.2593
2363	122.4585
2364	118.3496
2365	114.7507
2366	110.0115
2367	102.3998
2368	95.21424
2369	101.9119
2370	127.7716
2371	129.7349
2372	126.2342
2373	139.6004
2374	138.9182
2375	129.3527
2376	115.3781
2377	82.44949
2378	71.64262
2379	85.85428
2380	72.55506
2381	63.85625
2382	64.91383
2383	62.46373
2384	62.46179
2385	57.90499
2386	42.80562
2387	47.05336
2388	56.41569
2389	51.60963
2390	41.17573
2391	44.04795
2392	64.95039
2393	76.51312
2394	79.04022
2395	78.93523
2396	90.57663
2397	104.3186
2398	105.9499
2399	86.53307
2400	88.04851
2401	98.31062
2402	89.9322
2403	69.28978
2404	57.39234
2405	64.50686
2406	59.39715
2407	49.21748
2408	43.48532
2409	50.86808
2410	61.85886
2411	68.27773
2412	66.49527
2413	61.52792
2414	44.69495
2415	14.96067
2416	-0.303957
2417	2.677225
2418	17.86888
2419	43.24266
2420	59.06592
2421	61.24812
2422	70.83591
2423	71.72962
2424	55.33626
2425	24.64078
2426	25.03911
2427	39.12647
2428	36.09651
2429	18.71138
2430	18.52984
2431	43.38244
2432	53.13055
2433	40.35798
2434	22.1094
2435	32.85545
2436	51.64805
2437	66.71897
2438	69.66641
2439	74.66942
2440	72.89164
2441	61.21139
2442	44.96446
2443	31.60821
2444	36.45381
2445	69.39294
2446	84.91555
2447	87.482
2448	99.57929
2449	101.6757
2450	87.91913
2451	62.85226
2452	34.95567
2453	17.08536
2454	18.28569
2455	34.93489
2456	63.72194
2457	90.17657
2458	99.08124
2459	89.50449
2460	58.51744
2461	24.35433
2462	7.971915
2463	18.15336
2464	44.60481
2465	61.90485
2466	75.98267
2467	87.45061
2468	96.15154
2469	88.01579
2470	81.49023
2471	88.45258
2472	99.11543
2473	80.03702
2474	52.52096
2475	61.65086
2476	71.71616
2477	76.84108
2478	76.20632
2479	80.67064
2480	79.88585
2481	63.82224
2482	28.85864
2483	11.00164
2484	7.363765
2485	0.4715215
2486	2.678455
2487	15.75036
2488	25.03799
2489	4.547309
2490	7.542928
2491	29.4291
2492	35.25188
2493	40.76304
2494	41.93906
2495	44.84654
2496	76.49384
2497	79.29641
2498	58.88874
2499	67.09657
2500	61.55978
2501	49.4846
2502	45.71393
2503	49.6172
2504	69.08005
2505	93.41107
2506	102.9079
2507	114.8983
2508	111.388
2509	87.39291
2510	89.61208
2511	101.4726
2512	104.7626
2513	90.93876
2514	86.22167
2515	90.59877
2516	91.91847
2517	75.9686
2518	78.62717
2519	108.122
2520	130.172
2521	127.5739
2522	110.156
2523	102.7471
2524	98.29666
2525	92.68035
2526	89.48561
2527	101.4913
2528	114.1099
2529	116.9782
2530	109.6753
2531	111.5758
2532	115.2369
2533	115.5171
2534	113.2064
2535	97.62727
2536	85.77671
2537	92.26527
2538	90.77866
2539	85.88345
2540	77.21528
2541	62.34329
2542	58.51415
2543	72.53371
2544	95.81516
2545	109.0946
2546	118.5463
2547	121.5014
2548	112.2958
2549	101.2909
2550	87.3163
2551	71.10948
2552	57.37928
2553	32.51121
2554	16.24358
2555	34.1102
2556	41.85846
2557	68.4952
2558	107.642
2559	103.8871
2560	94.69279
2561	90.98252
2562	93.43823
2563	101.0104
2564	90.98244
2565	68.13103
2566	61.57153
2567	24.00722
2568	-6.73784
2569	-0.7489534
2570	-1.520646
2571	6.982155
2572	28.31611
2573	57.09717
2574	85.33164
2575	97.96313
2576	97.18011
2577	107.6919
2578	106.8828
2579	90.54966
2580	70.6383
2581	70.8031
2582	74.0499
2583	70.44002
2584	62.5481
2585	65.85353
2586	70.3177
2587	68.56891
2588	67.75919
2589	67.56789
2590	66.62066
2591	66.50475
2592	78.5608
2593	102.6254
2594	118.9971
2595	107.5331
2596	100.2885
2597	90.29398
2598	74.34822
2599	56.90379
2600	64.83499
2601	90.4857
2602	105.9167
2603	91.77026
2604	77.56458
2605	80.50184
2606	96.58563
2607	110.7261
2608	122.6681
2609	127.7336
2610	119.0533
2611	96.88118
2612	76.05155
2613	72.43909
2614	84.37032
2615	112.1534
2616	138.8319
2617	144.5165
2618	134.0446
2619	111.8622
2620	81.08099
2621	40.75436
2622	4.826552
2623	-3.920234
2624	13.95373
2625	33.29572
2626	50.3827
2627	73.94486
2628	101.7243
2629	106.0129
2630	103.8074
2631	100.9439
2632	97.89314
2633	86.94846
2634	82.16006
2635	85.87193
2636	91.24949
2637	96.90139
2638	109.7545
2639	125.7663
2640	131.7194
2641	123.0126
2642	104.2421
2643	78.97675
2644	41.24607
2645	16.09657
2646	9.08229
2647	14.51447
2648	25.51582
2649	20.77994
2650	10.35178
2651	15.82787
2652	43.6107
2653	72.28348
2654	87.96114
2655	88.06388
2656	79.79305
2657	55.22596
2658	23.16834
2659	1.991782
2660	13.52203
2661	42.41569
2662	71.05653
2663	90.08965
2664	91.29225
2665	81.70409
2666	66.51994
2667	44.11167
2668	36.91718
2669	53.18509
2670	80.36964
2671	93.62531
2672	72.80286
2673	52.32644
2674	54.4004
2675	52.75899
2676	43.21961
2677	38.83955
2678	44.87457
2679	45.07426
2680	28.68794
2681	41.08361
2682	95.83201
2683	128.4149
2684	139.7514
2685	125.4919
2686	93.62627
2687	55.43602
2688	26.7067
2689	30.80994
2690	65.09673
2691	91.31647
2692	117.9592
2693	122.1961
2694	95.50132
2695	66.3755
2696	58.93955
2697	70.4917
2698	82.39388
2699	86.51497
2700	101.6359
2701	113.0481
2702	105.841
2703	92.13249
2704	90.02425
2705	91.63039
2706	82.22169
2707	62.94235
2708	63.38729
2709	82.22092
2710	98.28497
2711	92.1737
2712	92.3103
2713	89.03763
2714	74.53066
2715	62.06988
2716	54.86957
2717	49.00977
2718	45.02006
2719	54.00851
2720	67.46488
2721	72.58847
2722	77.4399
2723	109.1852
2724	132.6473
2725	130.806
2726	118.318
2727	128.0806
2728	113.4713
2729	86.04279
2730	77.16947
2731	105.6571
2732	124.7549
2733	136.0237
2734	141.5091
2735	139.8637
2736	116.8061
2737	104.828
2738	110.8169
2739	116.4682
2740	115.6461
2741	125.9685
2742	128.1248
2743	103.0104
2744	78.54076
2745	67.62498
2746	60.85057
2747	54.49937
2748	75.24995
2749	108.3246
2750	127.1205
2751	123.7476
2752	123.3364
2753	106.5609
2754	98.30626
2755	108.0437
2756	115.3681
2757	103.647
2758	94.36932
2759	95.11888
2760	95.37354
2761	85.98077
2762	114.3672
2763	149.6448
2764	143.7945
2765	126.8814
2766	112.2028
2767	119.6576
2768	140.8362
2769	136.3138
2770	144.1644
2771	150.3484
2772	142.7552
2773	126.7041
2774	108.4258
2775	98.76298
2776	94.03412
2777	82.70699
2778	65.44678
2779	69.18295
2780	77.7408
2781	71.91277
2782	74.45105
2783	58.89629
2784	55.59153
2785	71.49845
2786	70.54914
2787	65.8599
2788	57.83323
2789	53.29688
2790	59.26832
2791	73.86358
2792	94.95242
2793	120.3939
2794	135.9724
2795	115.4464
2796	81.7953
2797	49.91069
2798	30.21928
2799	25.70953
2800	49.95396
2801	91.85715
2802	116.0661
2803	103.7987
2804	98.71346
2805	78.5123
2806	55.3041
2807	47.49573
2808	57.33037
2809	53.54495
2810	44.47876
2811	43.78165
2812	47.24984
2813	4.08641
2814	-3.714421
2815	6.476462
2816	4.216201
2817	23.04236
2818	70.54281
2819	93.08543
2820	65.06314
2821	20.74148
2822	17.56414
2823	19.74614
2824	19.97704
2825	34.36699
2826	80.39126
2827	91.1245
2828	85.17406
2829	81.82558
2830	81.48528
2831	90.54337
2832	72.26919
2833	56.02972
2834	63.33321
2835	55.10646
2836	33.77211
2837	28.75333
2838	38.79895
2839	41.35718
2840	51.35023
2841	54.06554
2842	52.62096
2843	48.41361
2844	37.27057
2845	55.64296
2846	64.47366
2847	70.65179
2848	92.30316
2849	92.83104
2850	84.31123
2851	74.02486
2852	63.04414
2853	46.60925
2854	34.03963
2855	22.16875
2856	29.02406
2857	53.70314
2858	60.342
2859	64.18622
2860	53.52055
2861	42.08672
2862	48.32744
2863	59.48363
2864	79.6973
2865	97.13143
2866	112.1746
2867	132.9021
2868	142.6829
2869	143.168
2870	148.6956
2871	161.5091
2872	164.9374
2873	165.7923
2874	171.4842
2875	172.7414
2876	158.7391
2877	138.0833
2878	106.7114
2879	107.5628
2880	125.5132
2881	118.1798
2882	110.3407
2883	120.4728
2884	140.7736
2885	153.775
2886	157.3421
2887	186.5479
2888	194.7319
2889	183.4152
2890	174.0002
2891	177.5729
2892	185.333
2893	172.021
2894	159.6014
2895	160.6239
2896	147.0323
2897	134.6602
2898	137.7362
2899	154.5899
2900	163.4907
2901	144.6349
2902	150.4156
2903	140.5272
2904	126.2124
2905	132.6277
2906	143.0569
2907	155.4094
2908	157.4714
2909	144.2424
2910	121.9975
2911	104.7732
2912	114.0835
2913	131.804
2914	153.4113
2915	173.123
2916	164.0198
2917	164.2887
2918	157.8807
2919	149.0136
2920	148.1173
2921	144.853
2922	146.6086
2923	134.6287
2924	125.7652
2925	133.2204
2926	121.1259
2927	104.4967
2928	97.17342
2929	99.87524
2930	105.0706
2931	111.1575
2932	110.6673
2933	121.0019
2934	141.3218
2935	163.2314
2936	185.8229
2937	183.0608
2938	164.1107
2939	129.8021
2940	90.17485
2941	70.23363
2942	72.53271
2943	77.42453
2944	88.06178
2945	100.1754
2946	100.0791
2947	120.7054
2948	122.7235
2949	114.9049
2950	95.43759
2951	63.34888
2952	76.59138
2953	80.92075
2954	95.87348
2955	120.1113
2956	128.6014
2957	117.2782
2958	74.54315
2959	54.18696
2960	59.14394
2961	54.63488
2962	33.46238
2963	38.67615
2964	47.19859
2965	34.23628
2966	10.46372
2967	8.500319
2968	5.238424
2969	6.73828
2970	24.85067
2971	56.37516
2972	78.32738
2973	70.37093
2974	70.40121
2975	64.35075
2976	58.72402
2977	63.54256
2978	66.01125
2979	59.40953
2980	49.82135
2981	60.13426
2982	84.0859
2983	89.85876
2984	87.50642
2985	99.20941
2986	111.863
2987	112.0999
2988	106.537
2989	111.4165
2990	95.58033
2991	86.41159
2992	91.25735
2993	101.2145
2994	102.9821
2995	84.1161
2996	62.30958
2997	30.35351
2998	0.9984546
2999	-7.31536
3000	-0.4419617
3001	40.80398
3002	82.48643
3003	107.8128
3004	104.2674
3005	74.37785
3006	63.09039
3007	62.77645
3008	81.96144
3009	99.16293
3010	104.5245
3011	117.8687
3012	104.3939
3013	98.29709
3014	101.3715
3015	105.6964
3016	97.93227
3017	64.72032
3018	48.47748
3019	49.05788
3020	51.3084
3021	48.55161
3022	48.39988
3023	49.10144
3024	36.49934
3025	20.87033
3026	36.85356
3027	78.97352
3028	93.77045
3029	86.33485
3030	87.30894
3031	77.9282
3032	54.49747
3033	41.43165
3034	56.5707
3035	59.16626
3036	65.71406
3037	85.81368
3038	109.7723
3039	119.8728
3040	114.9812
3041	108.7722
3042	106.5254
3043	113.9182
3044	117.1664
3045	117.4109
3046	144.5408
3047	136.4399
3048	114.0197
3049	93.29113
3050	89.34737
3051	97.3538
3052	87.67385
3053	72.89764
3054	75.30527
3055	68.81924
3056	50.3149
3057	39.81069
3058	31.30705
3059	19.98671
3060	-0.9327793
3061	17.10377
3062	50.69469
3063	62.61773
3064	87.67191
3065	79.26607
3066	74.95103
3067	81.51006
3068	92.47612
3069	89.6655
3070	63.71932
3071	51.33198
3072	53.68876
3073	70.95
3074	104.2384
3075	125.4845
3076	99.93795
3077	69.25211
3078	31.23424
3079	12.60819
3080	4.331273
3081	9.093567
3082	27.69715
3083	14.4645
3084	45.17712
3085	68.01913
3086	80.29691
3087	82.90589
3088	68.7083
3089	42.7434
3090	22.44366
3091	67.5768
3092	111.9123
3093	140.2781
3094	168.9683
3095	177.5815
3096	145.3197
3097	94.47762
3098	94.41926
3099	107.514
3100	109.9329
3101	118.0841
3102	112.0907
3103	77.87287
3104	46.37652
3105	53.80061
3106	61.36352
3107	50.08362
3108	56.62637
3109	60.05824
3110	58.38758
3111	81.24246
3112	99.0356
3113	93.91788
3114	84.87791
3115	86.26826
3116	82.20539
3117	73.75024
3118	54.54372
3119	32.34783
3120	20.62248
3121	28.90434
3122	53.66738
3123	64.45267
3124	69.12261
3125	72.27071
3126	74.22238
3127	55.48803
3128	26.51319
3129	54.16714
3130	63.75464
3131	88.46939
3132	113.2186
3133	115.0179
3134	84.69837
3135	49.95457
3136	58.82024
3137	36.54291
3138	41.61504
3139	56.98239
3140	64.79675
3141	69.83921
3142	88.22694
3143	123.7398
3144	120.5544
3145	108.5447
3146	89.61404
3147	74.281
3148	66.21545
3149	64.18171
3150	83.88035
3151	108.0375
3152	96.65326
3153	92.76996
3154	98.49383
3155	87.2781
3156	62.38751
3157	58.10767
3158	81.35765
3159	70.93953
3160	87.99953
3161	103.2523
3162	82.66368
3163	45.39133
3164	25.08853
3165	42.89606
3166	52.81132
3167	67.93118
3168	72.89531
3169	56.24047
3170	29.87268
3171	19.87762
3172	35.2035
3173	51.22231
3174	62.22947
3175	74.79829
3176	88.88328
3177	103.7508
3178	113.8248
3179	105.1979
3180	82.15489
3181	80.47597
3182	85.09911
3183	106.5727
3184	139.0439
3185	150.5286
3186	125.513
3187	97.35592
3188	92.14392
3189	70.53256
3190	65.68565
3191	71.06498
3192	72.59869
3193	74.98663
3194	93.12137
3195	116.6804
3196	71.37965
3197	38.94124
3198	6.273156
3199	-0.4101429
3200	25.38949
