RamanShift	Intensity
190	3539.972
191	3505.064
192	3464.865
193	3426.245
194	3370.054
195	3310.256
196	3254.333
197	3213.555
198	3178.051
199	3126.586
200	3080.685
201	3026.857
202	2980.043
203	2928.284
204	2874.75
205	2827.106
206	2773.429
207	2730.082
208	2678.852
209	2636.489
210	2600.946
211	2576.428
212	2565.085
213	2553.552
214	2544.163
215	2517.451
216	2476.613
217	2428.642
218	2377.727
219	2330.498
220	2276.416
221	2235.747
222	2197.808
223	2172.584
224	2142.161
225	2100.91
226	2058.677
227	2006.98
228	1962.527
229	1917.995
230	1884.157
231	1844.611
232	1795.818
233	1750.103
234	1697.189
235	1657.118
236	1621.015
237	1597.45
238	1566.823
239	1522.735
240	1477.085
241	1422.453
242	1378.732
243	1339.319
244	1315.688
245	1293.545
246	1269.874
247	1242.917
248	1194.311
249	1149.294
250	1120.758
251	1112.989
252	1090.812
253	1043.927
254	999.4197
255	968.5775
256	954.7456
257	936.4343
258	922.1389
259	910.595
260	902.3691
261	891.3214
262	868.353
263	843.3145
264	823.1384
265	806.0532
266	770.3167
267	715.6662
268	661.8699
269	619.6695
270	591.1741
271	556.1879
272	527.7634
273	493.8412
274	459.6862
275	428.9816
276	402.8295
277	385.9911
278	364.308
279	350.4025
280	341.0092
281	337.4488
282	324.0589
283	292.2473
284	262.1003
285	247.9003
286	245.9398
287	232.205
288	209.5761
289	184.3951
290	159.6869
291	147.8356
292	155.0596
293	174.6844
294	183.3537
295	180.4047
296	170.1563
297	154.5695
298	140.6918
299	137.3053
300	136.6081
301	124.982
302	108.0473
303	91.65626
304	80.1886
305	76.87766
306	84.57491
307	92.523
308	81.4129
309	64.16911
310	60.50885
311	70.40489
312	72.68237
313	58.35047
314	41.97647
315	35.01821
316	34.68276
317	33.46027
318	33.33685
319	33.71201
320	34.15708
321	32.20245
322	23.99579
323	19.85479
324	32.66457
325	52.01523
326	54.85934
327	38.5409
328	24.69675
329	24.95194
330	29.10973
331	26.07495
332	23.79328
333	26.86797
334	36.03085
335	48.24521
336	61.26758
337	81.40537
338	114.2275
339	143.0579
340	156.6253
341	156.6262
342	169.1812
343	193.4423
344	216.0187
345	230.2823
346	234.2354
347	234.9312
348	224.6484
349	206.6814
350	185.1105
351	169.4754
352	165.4684
353	162.8156
354	151.0934
355	143.9604
356	148.9878
357	162.6906
358	171.5605
359	173.5094
360	176.5492
361	183.3351
362	184.1577
363	172.1058
364	156.8432
365	151.637
366	156.4167
367	162.1055
368	166.767
369	169.7584
370	170.0088
371	166.0598
372	157.2027
373	147.4822
374	143.2766
375	145.1027
376	146.3302
377	144.6603
378	134.5246
379	110.2071
380	86.56361
381	76.81202
382	80.53519
383	80.86293
384	78.26625
385	74.0117
386	68.15515
387	65.01027
388	65.58266
389	73.13103
390	90.80899
391	110.3951
392	116.6831
393	106.246
394	100.4476
395	109.5497
396	118.0911
397	115.2663
398	105.7721
399	94.22247
400	85.49036
401	86.31274
402	99.62285
403	119.5705
404	141.1806
405	164.9012
406	193.5825
407	221.2006
408	256.4521
409	284.8115
410	299.2316
411	292.0719
412	275.179
413	257.825
414	242.2552
415	233.1609
416	229.7976
417	218.753
418	206.6427
419	201.9405
420	208.3041
421	222.1576
422	241.1162
423	256.5838
424	263.8217
425	260.5806
426	256.8539
427	249.9356
428	240.0705
429	227.8522
430	203.9121
431	165.8585
432	130.817
433	107.2146
434	103.7867
435	109.6259
436	127.1573
437	141.7592
438	148.1598
439	151.7681
440	153.8141
441	154.1883
442	158.526
443	159.2932
444	150.2449
445	135.1544
446	123.2851
447	119.2966
448	126.017
449	144.1028
450	160.36
451	159.976
452	152.9493
453	154.3803
454	162.4679
455	173.543
456	188.6683
457	216.4388
458	257.8083
459	296.2969
460	323.8973
461	333.004
462	339.3743
463	327.5912
464	298.7156
465	258.7109
466	226.3194
467	212.9542
468	204.5859
469	189.658
470	190.5688
471	211.2034
472	252.4188
473	308.3264
474	362.0574
475	396.988
476	401.7442
477	405.1726
478	421.3658
479	440.8006
480	467.115
481	487.5271
482	498.2507
483	496.5455
484	496.8788
485	499.4146
486	508.1645
487	523.3257
488	529.3537
489	516.4378
490	497.2351
491	489.5075
492	485.4644
493	471.2075
494	452.454
495	433.3639
496	419.3261
497	411.9057
498	412.8445
499	414.1385
500	403.9083
501	394.5001
502	395.6308
503	404.0441
504	410.0715
505	411.3459
506	405.5986
507	392.8452
508	383.8524
509	386.4153
510	392.1477
511	394.5585
512	390.1596
513	372.5385
514	349.1314
515	332.4514
516	329.213
517	335.8184
518	350.9478
519	364.7432
520	367.6728
521	366.3518
522	371.1201
523	375.384
524	376.3006
525	373.7464
526	369.852
527	366.8103
528	368.9035
529	378.0654
530	398.9402
531	434.2469
532	469.7634
533	500.2286
534	516.7783
535	534.5712
536	542.7379
537	543.8629
538	534.9565
539	518.6811
540	497.7723
541	473.0715
542	444.4041
543	423.084
544	406.8297
545	403.8756
546	403.3375
547	407.7495
548	410.5066
549	409.9019
550	406.6391
551	400.6657
552	389.3017
553	372.4652
554	349.6367
555	316.6189
556	282.9397
557	246.9521
558	219.9119
559	198.5678
560	190.5195
561	185.095
562	181.5314
563	189.5545
564	212.2466
565	233.5204
566	237.1194
567	231.8335
568	238.5868
569	246.0886
570	242.5117
571	227.0219
572	207.4428
573	188.8933
574	175.1266
575	169.2095
576	166.9762
577	161.1095
578	154.8859
579	141.8467
580	133.9863
581	144.7974
582	168.7936
583	182.6499
584	180.8881
585	176.9063
586	174.606
587	172.4317
588	171.7421
589	169.9355
590	165.502
591	157.6564
592	143.8166
593	129.3758
594	118.3125
595	114.9804
596	116.4001
597	122.626
598	129.4202
599	133.476
600	133.6714
601	128.1001
602	124.8204
603	136.9871
604	149.0811
605	139.9188
606	118.1933
607	107.822
608	112.124
609	119.9236
610	127.6509
611	127.4637
612	114.9032
613	100.8162
614	92.32446
615	94.83742
616	111.3279
617	134.7135
618	147.0463
619	150.6051
620	162.8878
621	179.1797
622	190.1028
623	189.7441
624	178.315
625	157.1183
626	137.3866
627	129.9901
628	132.8242
629	138.3067
630	146.3412
631	147.8561
632	144.8427
633	145.5087
634	147.5313
635	142.8309
636	130.3804
637	117.5341
638	108.3432
639	104.3744
640	105.8873
641	113.0485
642	120.2814
643	131.4357
644	150.6215
645	171.1517
646	194.1535
647	208.1896
648	203.6407
649	178.2601
650	153.5616
651	138.6314
652	123.7845
653	105.6551
654	83.79784
655	47.66225
656	26.08328
657	35.09049
658	62.61158
659	73.10386
660	70.74207
661	68.05791
662	68.02657
663	79.90826
664	104.6965
665	132.612
666	157.5677
667	175.598
668	182.937
669	196.0155
670	237.6007
671	275.8542
672	292.6287
673	287.8295
674	289.4257
675	288.2103
676	281.8309
677	269.4093
678	250.5673
679	227.7684
680	197.7706
681	165.1171
682	140.986
683	133.8097
684	130.3639
685	112.3154
686	93.14687
687	75.15612
688	66.74166
689	63.42104
690	71.94903
691	92.36659
692	118.1337
693	130.6007
694	126.4566
695	135.8957
696	164.0232
697	176.3694
698	157.6006
699	130.1043
700	114.1271
701	104.1231
702	93.21539
703	88.79771
704	89.53973
705	91.00526
706	74.99636
707	53.89171
708	52.84955
709	73.70301
710	94.48612
711	108.3669
712	121.5072
713	132.7466
714	141.7562
715	149.5417
716	153.3077
717	155.1906
718	152.2985
719	147.3343
720	139.3349
721	128.6214
722	119.1977
723	113.7739
724	112.6796
725	106.9887
726	99.03796
727	91.93219
728	89.35201
729	96.67789
730	115.0916
731	132.21
732	140.5504
733	141.4351
734	137.3067
735	129.0382
736	122.4063
737	118.0885
738	117.5832
739	118.0235
740	111.3335
741	100.9832
742	92.43367
743	86.71101
744	77.79759
745	66.71565
746	52.17438
747	37.58349
748	30.93646
749	36.87387
750	53.54086
751	76.18027
752	98.75453
753	114.8479
754	125.5968
755	140.549
756	151.3394
757	167.4241
758	170.8086
759	148.7836
760	114.4741
761	93.78014
762	96.72038
763	116.7708
764	152.5395
765	191.4633
766	225.4085
767	278.0889
768	344.5728
769	407.9613
770	452.4719
771	485.7048
772	519.942
773	544.0056
774	568.8074
775	585.0292
776	605.0453
777	616.4822
778	623.3613
779	622.0457
780	624.8527
781	624.5084
782	614.3134
783	596.4564
784	582.7479
785	573.3665
786	550.7461
787	515.6805
788	474.9611
789	437.2735
790	394.6604
791	350.4249
792	316.9536
793	298.6583
794	295.1947
795	296.5546
796	298.1884
797	283.5949
798	267.2775
799	261.2087
800	260.6084
801	254.968
802	244.7148
803	224.8319
804	202.0208
805	181.0354
806	170.2786
807	167.8335
808	176.9125
809	187.7748
810	200.4102
811	227.7749
812	268.4536
813	313.5815
814	352.9192
815	382.0239
816	397.5283
817	397.3671
818	387.9362
819	374.5773
820	369.516
821	369.328
822	369.7659
823	373.9075
824	379.0259
825	388.1355
826	405.2007
827	423.4317
828	437.1307
829	446.6241
830	467.5745
831	490.358
832	503.7364
833	503.6512
834	503.6469
835	507.4933
836	525.1023
837	558.8488
838	603.1104
839	651.7176
840	713.2225
841	784.1483
842	858.9757
843	933.152
844	995.1274
845	1045.333
846	1077.729
847	1111.533
848	1129.156
849	1142.319
850	1134.632
851	1115.235
852	1076.92
853	1022.682
854	964.5465
855	902.3475
856	849.5102
857	787.6705
858	739.0544
859	698.9836
860	676.1871
861	640.3751
862	602.9938
863	565.9785
864	540.3617
865	514.0794
866	493.9817
867	476.7307
868	465.1779
869	450.8545
870	432.6614
871	415.3786
872	400.8574
873	379.3967
874	346.8798
875	312.5136
876	282.4819
877	262.459
878	254.0906
879	253.1523
880	248.2135
881	242.1588
882	229.9363
883	219.7738
884	216.4985
885	217.0423
886	211.4554
887	206.8435
888	204.3204
889	209.5415
890	225.1416
891	247.3171
892	271.4745
893	290.8528
894	306.2897
895	316.4419
896	338.4341
897	363.9701
898	383.0092
899	391.1221
900	403.0836
901	415.4023
902	428.808
903	437.4791
904	432.4067
905	412.187
906	390.643
907	374.6801
908	359.4152
909	346.4987
910	329.5164
911	308.6554
912	288.7252
913	273.5116
914	258.0394
915	240.9269
916	224.7734
917	210.405
918	197.3315
919	183.5256
920	176.2787
921	177.5085
922	179.2075
923	171.6205
924	164.4654
925	164.7754
926	163.336
927	150.7153
928	136.2591
929	127.3587
930	124.5721
931	121.5682
932	126.722
933	143.6681
934	161.9976
935	165.8382
936	163.9768
937	177.1575
938	191.5253
939	197.094
940	188.9475
941	168.4774
942	144.3443
943	132.757
944	133.3414
945	129.0575
946	122.3129
947	109.625
948	97.60706
949	93.87508
950	99.70007
951	106.1463
952	110.9998
953	108.6319
954	101.9722
955	103.6155
956	113.6292
957	123.7964
958	132.6527
959	144.3615
960	158.6286
961	184.769
962	216.7026
963	241.7876
964	251.0144
965	250.032
966	238.0235
967	225.2496
968	214.438
969	197.8804
970	178.8464
971	161.2339
972	151.1636
973	147.8337
974	151.1204
975	146.729
976	131.7868
977	119.3297
978	115.2751
979	120.6983
980	134.7842
981	147.8961
982	154.2009
983	163.6183
984	177.4374
985	188.5991
986	192.5972
987	185.7382
988	167.8002
989	147.4164
990	132.4724
991	124.2138
992	125.1868
993	127.2673
994	126.1708
995	133.1027
996	151.1195
997	177.8601
998	208.3404
999	236.359
1000	255.1194
1001	268.3532
1002	277.0693
1003	271.7473
1004	251.6691
1005	218.9156
1006	180.763
1007	142.263
1008	111.0691
1009	85.93742
1010	67.05617
1011	55.84593
1012	50.60714
1013	53.33427
1014	61.40312
1015	65.65381
1016	59.86357
1017	59.14392
1018	70.11005
1019	75.49464
1020	67.29998
1021	61.65114
1022	66.5181
1023	72.9647
1024	76.63817
1025	80.35329
1026	84.46539
1027	90.13584
1028	97.55914
1029	114.8939
1030	142.8791
1031	158.7904
1032	151.3362
1033	143.0913
1034	146.1735
1035	153.5118
1036	162.8805
1037	169.8634
1038	171.6714
1039	181.0836
1040	201.9594
1041	231.2957
1042	262.3474
1043	291.9572
1044	314.286
1045	333.7873
1046	350.2859
1047	371.0613
1048	393.4361
1049	404.4397
1050	398.4205
1051	390.2397
1052	385.068
1053	378.9931
1054	372.7365
1055	361.493
1056	348.5719
1057	346.243
1058	356.9388
1059	363.8289
1060	362.4172
1061	359.9594
1062	357.4341
1063	354.9532
1064	353.3743
1065	353.6128
1066	353.8553
1067	345.1914
1068	330.2067
1069	320.9074
1070	318.5817
1071	304.8181
1072	289.4522
1073	296.8969
1074	327.0314
1075	356.6956
1076	380.5883
1077	407.4232
1078	431.2927
1079	466.0226
1080	495.2086
1081	507.5875
1082	498.1852
1083	483.6232
1084	471.8614
1085	485.0691
1086	505.6971
1087	502.0967
1088	477.2916
1089	441.6641
1090	415.0971
1091	419.4776
1092	439.4857
1093	435.2313
1094	418.7941
1095	401.7176
1096	387.7303
1097	379.73
1098	375.2711
1099	363.3894
1100	352.6643
1101	342.4347
1102	349.9945
1103	384.5514
1104	422.5627
1105	442.5346
1106	447.7952
1107	444.4373
1108	431.6634
1109	416.0224
1110	407.2233
1111	412.4861
1112	414.9052
1113	405.6284
1114	390.2653
1115	372.528
1116	355.0827
1117	341.655
1118	322.7853
1119	301.7777
1120	298.0494
1121	317.6804
1122	341.3221
1123	360.091
1124	371.9042
1125	370.7599
1126	360.6372
1127	344.5763
1128	336.593
1129	336.3728
1130	326.8958
1131	316.5292
1132	322.1404
1133	337.3374
1134	342.5413
1135	336.7876
1136	326.2103
1137	312.2444
1138	299.7975
1139	289.7799
1140	277.9234
1141	266.1674
1142	250.3053
1143	235.4602
1144	221.1763
1145	209.4288
1146	196.3397
1147	184.5598
1148	173.1335
1149	163.8147
1150	156.4267
1151	150.0089
1152	143.6762
1153	143.8446
1154	151.7668
1155	156.4469
1156	152.7406
1157	145.4595
1158	137.7073
1159	134.0687
1160	135.9317
1161	136.5548
1162	132.6583
1163	116.3769
1164	94.44258
1165	85.77633
1166	88.40999
1167	77.75483
1168	64.14133
1169	60.7024
1170	72.45885
1171	97.97797
1172	128.2919
1173	154.7937
1174	164.4124
1175	156.2138
1176	137.9903
1177	130.3315
1178	120.9462
1179	102.5491
1180	87.97958
1181	83.69028
1182	89.22061
1183	101.8716
1184	112.5237
1185	115.493
1186	125.646
1187	144.7082
1188	159.277
1189	164.5944
1190	173.754
1191	184.1554
1192	188.9603
1193	188.294
1194	193.3477
1195	202.5763
1196	213.1598
1197	224.014
1198	239.607
1199	249.6308
1200	248.4909
1201	240.4896
1202	237.1069
1203	241.5105
1204	257.8164
1205	272.625
1206	273.5655
1207	273.4557
1208	279.9315
1209	288.7194
1210	297.746
1211	305.1648
1212	308.6458
1213	307.406
1214	304.0848
1215	315.3368
1216	337.0833
1217	346.5045
1218	344.5758
1219	353.7391
1220	369.2197
1221	384.3435
1222	393.6711
1223	397.5456
1224	396.4623
1225	400.2668
1226	403.122
1227	401.1928
1228	406.1414
1229	425.5827
1230	446.306
1231	459.0919
1232	466.812
1233	470.3284
1234	474.287
1235	481.4251
1236	501.4477
1237	527.6058
1238	539.0867
1239	535.2856
1240	547.6469
1241	563.4205
1242	557.3584
1243	539.8531
1244	537.0091
1245	542.7577
1246	548.9108
1247	551.0698
1248	542.6182
1249	534.6566
1250	536.0521
1251	545.8868
1252	561.9084
1253	573.7456
1254	577.7874
1255	596.7385
1256	628.7702
1257	650.7423
1258	648.6274
1259	620.064
1260	576.6493
1261	552.6742
1262	548.1268
1263	538.91
1264	533.5508
1265	524.6942
1266	523.3097
1267	532.9709
1268	549.3933
1269	567.2291
1270	572.2471
1271	557.8644
1272	544.4819
1273	540.7414
1274	538.7767
1275	537.6525
1276	533.763
1277	526.8697
1278	512.3597
1279	503.7672
1280	524.9458
1281	555.1534
1282	556.8671
1283	547.2246
1284	551.3436
1285	553.7247
1286	547.3633
1287	538.4342
1288	530.947
1289	517.6693
1290	501.0729
1291	498.0182
1292	512.4413
1293	527.4162
1294	540.985
1295	561.1376
1296	578.8549
1297	588.352
1298	591.0319
1299	604.9144
1300	611.5521
1301	600.9824
1302	582.3347
1303	566.0471
1304	546.5549
1305	526.2415
1306	517.9128
1307	527.6989
1308	544.8212
1309	565.6943
1310	593.2217
1311	612.2122
1312	607.0259
1313	584.2366
1314	576.6157
1315	561.4041
1316	516.1894
1317	478.6409
1318	474.899
1319	473.4294
1320	456.5763
1321	436.0483
1322	418.956
1323	407.7392
1324	407.2535
1325	410.3815
1326	416.9738
1327	418.8232
1328	424.4522
1329	447.8861
1330	474.4838
1331	491.1734
1332	492.4297
1333	478.913
1334	464.3807
1335	459.2516
1336	444.5104
1337	422.8988
1338	413.1472
1339	422.0462
1340	438.5888
1341	461.0992
1342	487.5593
1343	506.0172
1344	510.4687
1345	508.1741
1346	514.7971
1347	519.5252
1348	518.9075
1349	513.1113
1350	503.1289
1351	488.815
1352	473.8988
1353	459.7387
1354	449.9598
1355	437.9531
1356	429.0219
1357	420.0415
1358	415.6723
1359	413.8288
1360	418.1779
1361	428.0286
1362	443.7838
1363	462.4777
1364	486.7874
1365	506.1314
1366	508.2847
1367	489.236
1368	467.1285
1369	440.5436
1370	401.7161
1371	378.12
1372	383.9146
1373	404.3471
1374	421.8253
1375	438.4954
1376	447.337
1377	437.7371
1378	413.5515
1379	406.7909
1380	405.9405
1381	369.2735
1382	327.3424
1383	312.6776
1384	317.5097
1385	324.9146
1386	334.2988
1387	340.0725
1388	350.7399
1389	365.5489
1390	381.8843
1391	391.5634
1392	386.985
1393	375.0771
1394	376.4783
1395	385.9414
1396	398.5549
1397	399.2076
1398	379.7733
1399	369.0526
1400	378.5906
1401	383.7643
1402	383.7302
1403	393.7296
1404	408.1015
1405	417.1923
1406	420.9282
1407	426.742
1408	423.4107
1409	406.8226
1410	393.7756
1411	393.6332
1412	397.9585
1413	406.0346
1414	418.1248
1415	431.8178
1416	446.312
1417	456.8191
1418	464.0863
1419	467.3055
1420	469.6994
1421	477.4271
1422	491.9497
1423	502.1788
1424	505.543
1425	516.2244
1426	533.0259
1427	558.1588
1428	576.0996
1429	574.0495
1430	566.1166
1431	570.2969
1432	576.5172
1433	580.5965
1434	574.5139
1435	561.0572
1436	560.4446
1437	567.2491
1438	559.2766
1439	548.3661
1440	546.8432
1441	553.9038
1442	566.9244
1443	577.8112
1444	579.0668
1445	562.6099
1446	539.0464
1447	548.6972
1448	576.4178
1449	576.9879
1450	572.2354
1451	585.0513
1452	596.5552
1453	598.4656
1454	613.9472
1455	641.6608
1456	650.7106
1457	642.4932
1458	651.7847
1459	664.1271
1460	665.4768
1461	652.3494
1462	627.7338
1463	580.0087
1464	519.6631
1465	476.0244
1466	461.9663
1467	440.9149
1468	424.4514
1469	408.4039
1470	401.8041
1471	402.1618
1472	403.3752
1473	398.5362
1474	386.1494
1475	367.2176
1476	342.712
1477	321.2697
1478	309.5789
1479	300.7437
1480	276.6497
1481	246.1509
1482	216.7314
1483	197.2666
1484	192.285
1485	182.1168
1486	165.9001
1487	135.03
1488	112.7055
1489	118.8161
1490	130.0005
1491	121.5872
1492	113.4222
1493	111.8744
1494	113.9443
1495	112.6212
1496	89.55053
1497	56.07431
1498	29.08633
1499	19.6803
1500	30.47757
1501	50.27013
1502	68.72167
1503	93.63978
1504	116.2907
1505	132.8451
1506	139.9259
1507	151.8432
1508	155.3698
1509	147.4553
1510	131.9709
1511	114.1311
1512	92.26893
1513	73.04449
1514	58.40454
1515	54.41466
1516	50.04776
1517	66.76846
1518	109.7584
1519	145.2294
1520	155.8549
1521	160.9861
1522	158.0042
1523	151.5802
1524	143.9787
1525	143.2203
1526	136.8988
1527	118.3388
1528	104.0488
1529	100.3749
1530	93.50041
1531	89.84952
1532	97.61372
1533	112.3886
1534	123.2116
1535	143.3422
1536	174.2433
1537	187.8555
1538	176.0968
1539	159.9923
1540	150.0026
1541	161.6372
1542	179.5038
1543	184.3674
1544	187.5791
1545	191.5846
1546	189.7115
1547	182.6685
1548	179.8909
1549	175.183
1550	156.6546
1551	149.7652
1552	168.3119
1553	179.7376
1554	174.9343
1555	179.4807
1556	182.8457
1557	160.9852
1558	137.7845
1559	138.8806
1560	139.5103
1561	130.6195
1562	136.1048
1563	156.9623
1564	179.115
1565	190.8535
1566	184.9055
1567	169.8691
1568	158.5038
1569	147.7023
1570	139.7417
1571	126.8419
1572	119.9114
1573	131.3656
1574	146.0077
1575	144.6318
1576	131.3354
1577	112.4511
1578	103.5078
1579	109.1494
1580	115.353
1581	127.8938
1582	148.7868
1583	175.5547
1584	203.754
1585	229.4626
1586	241.4516
1587	238.7169
1588	220.7417
1589	201.1616
1590	184.9635
1591	178.2153
1592	180.8082
1593	190.7045
1594	194.6761
1595	197.3959
1596	214.9469
1597	227.4268
1598	221.0227
1599	218.9763
1600	227.9294
1601	229.0184
1602	221.713
1603	215.7715
1604	205.5858
1605	188.0552
1606	172.7614
1607	164.7037
1608	149.8685
1609	137
1610	139.8367
1611	150.6391
1612	152.402
1613	156.2325
1614	165.1136
1615	174.9983
1616	181.1712
1617	181.4912
1618	176.1991
1619	170.1889
1620	171.8377
1621	183.5228
1622	185.4497
1623	173.2983
1624	152.983
1625	137.0082
1626	137.3875
1627	140.6542
1628	137.4127
1629	129.6783
1630	123.8725
1631	135.4742
1632	151.1574
1633	152.3418
1634	142.5732
1635	128.1607
1636	129.6816
1637	149.7231
1638	173.5547
1639	191.6783
1640	196.2086
1641	200.1046
1642	209.7524
1643	207.9233
1644	192.9853
1645	173.8443
1646	158.135
1647	152.6545
1648	156.3915
1649	166.1641
1650	178.3478
1651	188.4935
1652	195.3564
1653	197.0369
1654	196.7415
1655	191.9624
1656	185.6863
1657	188.1924
1658	198.4045
1659	206.9479
1660	215.8266
1661	226.7028
1662	227.7913
1663	218.8148
1664	220.1086
1665	224.6517
1666	217.3769
1667	200.5956
1668	180.1781
1669	170.8767
1670	178.5394
1671	190.2156
1672	195.6151
1673	180.4627
1674	171.3377
1675	183.077
1676	192.3921
1677	193.3082
1678	185.6964
1679	178.5333
1680	183.5989
1681	191.9322
1682	198.0485
1683	198.0854
1684	196.0762
1685	206.2701
1686	215.9216
1687	215.5383
1688	219.8949
1689	228.7523
1690	228.9691
1691	221.8056
1692	213.7997
1693	214.273
1694	226.654
1695	232.5343
1696	227.6561
1697	216.0963
1698	211.5514
1699	227.2725
1700	242.6602
1701	247.4235
1702	249.2829
1703	251.7607
1704	267.0623
1705	276.7493
1706	269.433
1707	259.8404
1708	253.9561
1709	254.6702
1710	255.9724
1711	247.1845
1712	245.5397
1713	257.2207
1714	271.1205
1715	285.42
1716	307.1515
1717	320.4589
1718	317.1259
1719	308.666
1720	298.8054
1721	288.2824
1722	277.1166
1723	262.7749
1724	249.8227
1725	241.1908
1726	237.1756
1727	233.7266
1728	216.3093
1729	201.2145
1730	199.8834
1731	209.1985
1732	222.1129
1733	220.811
1734	214.8567
1735	219.4914
1736	210.2257
1737	184.8633
1738	172.5547
1739	172.9991
1740	167.4107
1741	172.4478
1742	191.0613
1743	209.8476
1744	220.5099
1745	227.3203
1746	222.5878
1747	208.0954
1748	192.9728
1749	183.6655
1750	175.8381
1751	168.8913
1752	156.3516
1753	146.8062
1754	143.9559
1755	142.9804
1756	144.811
1757	150.3968
1758	142.4032
1759	115.3774
1760	105.0735
1761	113.7712
1762	113.1238
1763	111.2215
1764	112.4364
1765	126.0941
1766	149.2074
1767	169.1868
1768	174.8778
1769	163.3839
1770	159.4265
1771	170.1223
1772	161.9815
1773	139.6963
1774	116.0959
1775	112.5215
1776	134.4384
1777	137.7393
1778	124.7479
1779	121.7799
1780	125.8272
1781	132.8136
1782	115.9841
1783	87.22324
1784	89.04726
1785	109.456
1786	128.0887
1787	136.0399
1788	134.3996
1789	154.0153
1790	176.2916
1791	182.7788
1792	175.9838
1793	163.508
1794	173.3673
1795	180.5813
1796	149.4952
1797	127.744
1798	134.8862
1799	142.6307
1800	153.6228
1801	171.2292
1802	180.1775
1803	174.7219
1804	174.5331
1805	173.1122
1806	157.8624
1807	137.1794
1808	119.7353
1809	110.9879
1810	114.9893
1811	122.5042
1812	137.2531
1813	155.3537
1814	166.2048
1815	167.512
1816	174.286
1817	171.1402
1818	156.1645
1819	168.8449
1820	201.9118
1821	210.3975
1822	213.8102
1823	228.3579
1824	230.4053
1825	219.1299
1826	214.1754
1827	206.9553
1828	193.0946
1829	187.3034
1830	191.223
1831	189.9695
1832	189.1796
1833	191.4662
1834	187.3054
1835	181.2356
1836	192.3691
1837	201.3327
1838	191.3871
1839	181.3493
1840	176.373
1841	172.5218
1842	168.2633
1843	160.3696
1844	143.7783
1845	128.9125
1846	136.9228
1847	152.6638
1848	156.5287
1849	161.7218
1850	167.4405
1851	172.6275
1852	168.9651
1853	154.6299
1854	147.6147
1855	156.651
1856	183.7563
1857	207.5516
1858	208.1683
1859	201.0473
1860	193.9242
1861	201.2951
1862	209.1405
1863	207.239
1864	205.3051
1865	205.0127
1866	207.9192
1867	206.8023
1868	199.3103
1869	198.6234
1870	205.3819
1871	214.5637
1872	219.7883
1873	215.2831
1874	195.8768
1875	173.9711
1876	168.0886
1877	160.8765
1878	146.3367
1879	133.2768
1880	129.2129
1881	135.7103
1882	155.6341
1883	181.5517
1884	197.0683
1885	203.1803
1886	210.9146
1887	211.0349
1888	202.4366
1889	190.2784
1890	177.7293
1891	168.9963
1892	168.9266
1893	176.3268
1894	180.86
1895	176.5535
1896	163.1734
1897	168.1693
1898	182.7672
1899	176.4192
1900	168.0403
1901	168.7728
1902	170.9332
1903	173.8758
1904	176.1487
1905	177.9117
1906	178.8611
1907	180.0784
1908	177.6238
1909	168.7959
1910	180.6827
1911	211.1575
1912	229.8968
1913	232.8758
1914	223.9242
1915	211.5202
1916	199.7364
1917	185.6286
1918	174.0264
1919	168.0068
1920	169.2015
1921	175.3402
1922	177.2044
1923	179.1192
1924	179.6088
1925	167.1554
1926	159.5208
1927	174.4976
1928	195.6438
1929	210.6429
1930	215.9724
1931	214.1135
1932	212.6546
1933	212.2516
1934	198.4481
1935	147.5794
1936	106.9114
1937	107.1357
1938	124.6977
1939	152.1982
1940	168.5489
1941	188.2761
1942	206.8098
1943	222.2563
1944	212.928
1945	175.8865
1946	133.9655
1947	109.1852
1948	107.0866
1949	118.2974
1950	130.5642
1951	152.8855
1952	173.48
1953	181.3663
1954	180.6135
1955	171.6623
1956	155.8663
1957	145.9519
1958	151.1771
1959	152.5924
1960	154.0971
1961	166.7529
1962	176.7376
1963	174.8824
1964	161.7013
1965	142.0289
1966	126.0643
1967	113.6755
1968	106.2903
1969	90.6055
1970	90.63064
1971	112.6675
1972	128.9047
1973	139.996
1974	155.3518
1975	161.6666
1976	158.6329
1977	163.4557
1978	175.3999
1979	190.4077
1980	189.9341
1981	167.8369
1982	131.4788
1983	111.8788
1984	121.7352
1985	129.764
1986	140.2355
1987	152.3766
1988	176.7545
1989	191.252
1990	165.7458
1991	128.821
1992	108.313
1993	113.6545
1994	137.1938
1995	156.4042
1996	173.8087
1997	183.6322
1998	189.2665
1999	186.066
2000	175.6463
2001	158.4727
2002	141.7469
2003	131.4118
2004	118.6336
2005	108.3967
2006	106.8572
2007	119.3346
2008	138.9117
2009	147.4089
2010	140.5139
2011	124.3272
2012	110.369
2013	101.4636
2014	86.59074
2015	76.99625
2016	79.98909
2017	106.5795
2018	125.9875
2019	108.0916
2020	97.36101
2021	100.9295
2022	104.721
2023	113.9538
2024	128.4075
2025	151.3698
2026	170.8499
2027	175.9863
2028	164.6419
2029	141.6762
2030	122.6795
2031	98.66973
2032	77.75504
2033	81.11653
2034	100.4234
2035	116.8891
2036	133.3858
2037	141.2278
2038	137.5399
2039	130.8961
2040	126.0177
2041	119.777
2042	118.1833
2043	121.5601
2044	114.3643
2045	107.9545
2046	116.4722
2047	107.4655
2048	86.90121
2049	83.55718
2050	95.64606
2051	117.1781
2052	140.1882
2053	153.0115
2054	149.4013
2055	138.064
2056	118.9002
2057	92.3231
2058	73.07688
2059	69.17696
2060	67.40359
2061	84.24433
2062	116.0647
2063	135.7572
2064	142.1635
2065	146.4235
2066	141.514
2067	128.6503
2068	114.3497
2069	100.3481
2070	91.83965
2071	92.12807
2072	94.5107
2073	90.98006
2074	88.47018
2075	82.7707
2076	69.32115
2077	63.76761
2078	73.30195
2079	96.77352
2080	110.9086
2081	104.9817
2082	95.98225
2083	90.34771
2084	94.683
2085	98.46844
2086	113.5732
2087	148.8288
2088	183.2221
2089	199.1415
2090	197.7786
2091	176.3111
2092	147.8137
2093	131.2196
2094	115.7168
2095	96.76726
2096	103.1171
2097	122.3823
2098	129.9729
2099	144.755
2100	155.3995
2101	146
2102	134.3516
2103	123.9936
2104	99.5356
2105	77.34631
2106	65.68263
2107	43.28399
2108	37.29983
2109	59.96444
2110	68.81145
2111	63.64108
2112	58.86156
2113	62.84617
2114	75.86407
2115	89.06673
2116	103.8314
2117	118.89
2118	142.3152
2119	155.424
2120	149.8373
2121	134.4723
2122	119.3219
2123	116.8957
2124	117.0161
2125	119.4514
2126	122.2457
2127	123.0252
2128	120.6329
2129	115.6055
2130	120.2493
2131	132.0199
2132	129.8341
2133	121.3372
2134	114.8599
2135	113.8766
2136	117.6981
2137	119.9089
2138	100.6837
2139	74.1734
2140	63.81123
2141	60.79593
2142	65.86491
2143	74.18186
2144	92.103
2145	111.3685
2146	122.0393
2147	109.7223
2148	81.8195
2149	70.32593
2150	70.72651
2151	76.36529
2152	83.82467
2153	90.61454
2154	93.5987
2155	87.68116
2156	78.10868
2157	75.31126
2158	93.45582
2159	116.0088
2160	112.5072
2161	108.0486
2162	105.0749
2163	94.33567
2164	78.4824
2165	65.28702
2166	60.386
2167	71.07883
2168	90.60815
2169	97.91508
2170	100.7278
2171	106.1249
2172	109.0651
2173	109.9598
2174	110.9007
2175	110.6467
2176	111.0949
2177	113.8105
2178	107.4272
2179	96.46752
2180	91.98267
2181	101.8681
2182	121.3377
2183	135.4001
2184	148.2167
2185	157.3634
2186	164.3837
2187	155.0793
2188	131.5834
2189	108.4598
2190	96.97154
2191	101.3184
2192	109.3071
2193	119.1188
2194	125.1886
2195	130.5148
2196	131.5603
2197	127.0688
2198	111.3004
2199	100.4298
2200	108.9992
2201	116.2264
2202	127.0008
2203	144.8032
2204	149.4179
2205	145.8734
2206	151.3061
2207	149.0128
2208	142.518
2209	143.4937
2210	124.2754
2211	97.15279
2212	95.32674
2213	101.7498
2214	112.1481
2215	126.9512
2216	143.9183
2217	158.9339
2218	176.6862
2219	175.347
2220	154.8051
2221	140.0029
2222	132.4225
2223	129.7593
2224	114.3543
2225	98.59398
2226	94.3374
2227	108.1821
2228	129.8405
2229	148.727
2230	179.9102
2231	204.3432
2232	210.6975
2233	212.7764
2234	206.2719
2235	194.6225
2236	180.1185
2237	167.3761
2238	159.425
2239	153.0881
2240	140.5923
2241	119.7697
2242	112.5315
2243	121.4457
2244	136.5375
2245	138.8394
2246	144.9095
2247	168.0721
2248	172.5871
2249	164.8959
2250	161.2664
2251	155.3187
2252	152.5261
2253	156.3928
2254	157.2753
2255	157.7876
2256	159.5946
2257	141.6253
2258	121.7105
2259	121.2825
2260	107.5
2261	90.3099
2262	85.79864
2263	102.5051
2264	128.2647
2265	142.283
2266	156.3501
2267	165.7876
2268	167.9282
2269	148.5837
2270	126.2793
2271	126.5664
2272	136.2159
2273	157.2231
2274	183.7269
2275	207.4852
2276	213.393
2277	198.1642
2278	174.0163
2279	155.1249
2280	152.3937
2281	146.6061
2282	151.5853
2283	173.6777
2284	195.9242
2285	208.8036
2286	206.9756
2287	191.5556
2288	166.5582
2289	144.1404
2290	129.0586
2291	129.6593
2292	143.6848
2293	164.1352
2294	176.1823
2295	170.2188
2296	158.5375
2297	141.9822
2298	130.3734
2299	136.5555
2300	159.0532
2301	183.5654
2302	198.6524
2303	204.6127
2304	202.4775
2305	191.2656
2306	176.057
2307	170.2878
2308	189.0127
2309	205.9776
2310	203.9964
2311	185.0474
2312	179.4694
2313	187.1919
2314	175.2802
2315	176.1692
2316	192.5952
2317	207.3053
2318	212.75
2319	207.3863
2320	199.9931
2321	203.9902
2322	219.8588
2323	236.4635
2324	228.8108
2325	212.1839
2326	213.0805
2327	211.3002
2328	193.3967
2329	157.5746
2330	144.1944
2331	135.1287
2332	109.9907
2333	69.72929
2334	61.2446
2335	99.63036
2336	134.5577
2337	147.0533
2338	139.9447
2339	164.1673
2340	170.8739
2341	153.7977
2342	151.113
2343	159.9131
2344	181.9855
2345	215.2078
2346	233.18
2347	230.0358
2348	221.2679
2349	212.4313
2350	204.5952
2351	196.1409
2352	184.6071
2353	180.4879
2354	187.3944
2355	181.812
2356	172.5386
2357	167.6754
2358	160.9308
2359	160.6291
2360	168.5552
2361	179.2043
2362	173.1383
2363	154.9743
2364	154.8223
2365	164.4021
2366	175.6578
2367	179.9395
2368	185.0146
2369	196.4694
2370	214.4456
2371	206.534
2372	198.6436
2373	216.4908
2374	220.0506
2375	214.1634
2376	202.1142
2377	170.2675
2378	148.3657
2379	143.6537
2380	123.4399
2381	121.2627
2382	137.4945
2383	148.4745
2384	160.6824
2385	167.3858
2386	164.1328
2387	164.328
2388	159.4564
2389	143.9517
2390	130.4587
2391	128.5945
2392	139.8108
2393	151.7329
2394	165.3482
2395	175.2215
2396	176.7541
2397	172.354
2398	161.545
2399	144.8388
2400	147.5853
2401	164.0825
2402	173.1923
2403	170.24
2404	162.2763
2405	154.2728
2406	125.1587
2407	101.51
2408	96.70103
2409	91.8203
2410	99.28616
2411	113.1044
2412	117.7125
2413	115.7722
2414	101.3956
2415	78.77825
2416	76.84489
2417	86.43475
2418	96.76302
2419	123.1037
2420	145.9143
2421	151.9512
2422	144.3717
2423	139.2465
2424	130.1183
2425	102.5471
2426	100.6639
2427	114.9629
2428	121.8267
2429	118.4051
2430	121.46
2431	134.8639
2432	136.956
2433	117.0941
2434	91.03054
2435	90.36223
2436	103.4851
2437	116.1169
2438	113.6811
2439	116.297
2440	109.9251
2441	90.5686
2442	72.38976
2443	61.08342
2444	70.99872
2445	111.6996
2446	135.3739
2447	141.4173
2448	149.9533
2449	145.1346
2450	130.4318
2451	113.511
2452	89.20576
2453	77.28301
2454	85.9618
2455	106.0834
2456	127.629
2457	143.4583
2458	149.9792
2459	142.6181
2460	111.2419
2461	72.39136
2462	60.43886
2463	73.92912
2464	95.34154
2465	98.47987
2466	100.6737
2467	101.9144
2468	101.2463
2469	96.17382
2470	103.7674
2471	125.0972
2472	140.304
2473	121.0295
2474	90.03645
2475	94.40495
2476	105.3465
2477	118.1143
2478	128.5049
2479	144.8119
2480	144.3544
2481	119.1445
2482	81.78111
2483	60.87035
2484	52.8029
2485	40.31009
2486	33.38288
2487	43.55024
2488	58.45115
2489	42.39485
2490	45.71381
2491	67.03513
2492	77.23478
2493	82.61086
2494	81.50175
2495	83.10112
2496	112.9792
2497	114.3189
2498	91.97932
2499	96.52131
2500	91.17895
2501	78.96528
2502	72.02631
2503	80.12894
2504	98.1237
2505	112.7211
2506	113.6248
2507	126.6518
2508	126.9892
2509	99.68697
2510	97.37051
2511	105.9124
2512	109.2802
2513	98.32429
2514	100.6552
2515	114.1683
2516	124.154
2517	122.3132
2518	126.2135
2519	141.263
2520	151.8755
2521	138.8603
2522	114.0951
2523	104.5981
2524	110.4968
2525	126.2399
2526	141.4443
2527	151.6901
2528	157.9999
2529	147.8957
2530	120.6769
2531	112.8588
2532	118.3599
2533	128.9403
2534	139.9077
2535	131.914
2536	126.3623
2537	142.1857
2538	134.8128
2539	123.9497
2540	110.4772
2541	77.29215
2542	62.0537
2543	70.5881
2544	91.62387
2545	123.4994
2546	136.1138
2547	129.1661
2548	130.4972
2549	131.7983
2550	131.5022
2551	127.991
2552	120.9319
2553	96.80185
2554	68.97713
2555	61.26831
2556	60.69025
2557	89.26313
2558	130.9646
2559	131.6238
2560	130.9248
2561	133.1876
2562	133.6908
2563	141.6803
2564	132.0689
2565	107.4063
2566	95.56017
2567	56.78618
2568	27.29595
2569	33.07031
2570	29.56626
2571	44.07503
2572	70.75542
2573	88.74031
2574	113.1775
2575	121.1733
2576	110.4658
2577	109.8177
2578	107.124
2579	100.0402
2580	93.44914
2581	101.6647
2582	120.7521
2583	131.0557
2584	116.2404
2585	111.2721
2586	108.3183
2587	98.82917
2588	83.69717
2589	79.24643
2590	81.33097
2591	81.703
2592	93.84729
2593	114.6556
2594	133.3889
2595	139.8516
2596	138.3872
2597	129.9428
2598	117.758
2599	100.9508
2600	116.1366
2601	139.0458
2602	135.2919
2603	125.3259
2604	114.9437
2605	113.5452
2606	123.8309
2607	139.7211
2608	159.4706
2609	165.879
2610	138.4228
2611	113.0197
2612	97.40118
2613	90.96599
2614	88.01524
2615	102.196
2616	126.2927
2617	140.9714
2618	139.0552
2619	128.9336
2620	113.8175
2621	89.65983
2622	54.53125
2623	43.37864
2624	64.5863
2625	86.89929
2626	101.4193
2627	126.8079
2628	166.327
2629	181.2987
2630	182.5538
2631	178.2689
2632	174.3821
2633	158.8852
2634	136.1538
2635	127.8922
2636	148.7077
2637	153.9281
2638	161.8143
2639	173.3907
2640	173.0059
2641	152.8533
2642	128.515
2643	112.9312
2644	99.48441
2645	91.15088
2646	91.56114
2647	98.90851
2648	107.3312
2649	88.5159
2650	70.46856
2651	83.29494
2652	100.8595
2653	117.7541
2654	124.21
2655	117.852
2656	109.5753
2657	86.74842
2658	57.5837
2659	41.15258
2660	48.07937
2661	78.12581
2662	116.0424
2663	140.7845
2664	139.9887
2665	125.833
2666	101.5788
2667	58.11526
2668	33.06669
2669	42.93994
2670	74.64532
2671	95.2452
2672	85.50309
2673	78.18709
2674	86.18517
2675	73.09257
2676	62.16459
2677	59.90266
2678	63.44189
2679	61.17173
2680	49.31192
2681	65.66303
2682	119.2599
2683	155.0032
2684	174.2663
2685	164.2591
2686	130.3634
2687	96.73242
2688	69.44047
2689	63.56009
2690	78.16376
2691	91.08825
2692	96.6881
2693	87.90696
2694	71.66133
2695	68.26158
2696	85.72797
2697	113.3108
2698	129.6572
2699	125.3661
2700	117.1537
2701	108.2442
2702	98.91328
2703	90.83866
2704	91.86192
2705	99.01072
2706	102.0661
2707	94.18447
2708	91.85048
2709	100.062
2710	110.721
2711	106.6649
2712	101.9879
2713	97.8147
2714	94.42364
2715	93.84328
2716	85.49727
2717	68.94333
2718	55.89283
2719	63.01119
2720	62.84874
2721	65.56855
2722	82.87769
2723	111.3396
2724	129.7155
2725	126.3635
2726	120.5136
2727	143.6272
2728	128.7313
2729	109.2971
2730	115.612
2731	140.7379
2732	147.9767
2733	153.6136
2734	163.8211
2735	166.0263
2736	136.2038
2737	124.4293
2738	134.8299
2739	133.6738
2740	115.9965
2741	118.6723
2742	124.8507
2743	104.5728
2744	78.40597
2745	64.80509
2746	57.33434
2747	51.02761
2748	66.60027
2749	97.4868
2750	121.3123
2751	124.567
2752	119.0597
2753	91.03621
2754	65.07677
2755	62.04553
2756	75.54855
2757	72.83794
2758	75.67437
2759	89.19696
2760	99.59554
2761	99.40596
2762	119.5778
2763	143.312
2764	142.8308
2765	138.2173
2766	137.299
2767	149.6707
2768	168.5295
2769	169.7419
2770	160.4203
2771	137.7132
2772	113.0717
2773	105.4428
2774	100.9993
2775	100.6736
2776	104.8752
2777	106.8121
2778	75.4571
2779	75.10184
2780	89.80211
2781	87.65733
2782	96.8866
2783	81.74424
2784	73.20103
2785	76.4368
2786	53.1977
2787	49.10741
2788	53.90619
2789	63.04715
2790	77.74836
2791	90.49081
2792	103.966
2793	113.968
2794	110.8326
2795	86.31818
2796	76.06859
2797	67.5284
2798	56.96938
2799	64.86195
2800	97.06321
2801	131.5397
2802	137.1228
2803	109.1648
2804	93.82784
2805	60.24572
2806	28.05611
2807	25.85613
2808	56.46738
2809	75.61103
2810	83.58697
2811	88.61166
2812	89.41238
2813	53.64294
2814	39.0806
2815	43.21112
2816	49.77033
2817	73.01718
2818	105.3842
2819	114.1375
2820	87.58762
2821	51.27209
2822	43.13081
2823	41.01913
2824	34.9238
2825	34.6946
2826	61.50613
2827	66.31573
2828	63.90387
2829	67.8419
2830	77.1878
2831	96.93628
2832	94.55801
2833	91.80152
2834	100.043
2835	80.66754
2836	61.33638
2837	56.90968
2838	67.53936
2839	82.10346
2840	102.95
2841	107.8206
2842	97.01456
2843	82.52908
2844	75.32698
2845	97.69584
2846	116.9103
2847	132.6761
2848	153.8371
2849	150.5618
2850	128.2257
2851	105.9809
2852	96.78705
2853	94.22939
2854	93.98182
2855	98.06479
2856	118.6848
2857	146.6646
2858	143.326
2859	128.4956
2860	118.3615
2861	113.1228
2862	104.3373
2863	103.6679
2864	123.4696
2865	142.8787
2866	151.3139
2867	162.4621
2868	193.4377
2869	200.5226
2870	197.943
2871	203.3034
2872	202.5753
2873	202.0691
2874	207.735
2875	211.0133
2876	203.5752
2877	194.6012
2878	173.1875
2879	167.5287
2880	173.5478
2881	166.892
2882	157.1281
2883	165.4428
2884	187.3697
2885	207.0135
2886	217.2623
2887	241.5711
2888	244.0405
2889	241.0587
2890	252.7512
2891	270.9429
2892	279.5363
2893	271.8275
2894	258.4055
2895	242.3015
2896	212.9844
2897	212.8379
2898	213.4969
2899	210.7775
2900	213.095
2901	219.1907
2902	224.6672
2903	219.3628
2904	224.0203
2905	245.1655
2906	243.8712
2907	235.8974
2908	233.9318
2909	221.5269
2910	190.7265
2911	180.7678
2912	184.6351
2913	194.5515
2914	207.8825
2915	221.6636
2916	224.357
2917	234.3591
2918	236.9509
2919	226.848
2920	213.9798
2921	212.7141
2922	225.916
2923	236.6606
2924	245.2415
2925	253.6394
2926	243.0221
2927	216.0866
2928	194.247
2929	191.1165
2930	203.5794
2931	218.8527
2932	221.1297
2933	234.7328
2934	251.8239
2935	256.7097
2936	258.1788
2937	247.4659
2938	225.6553
2939	195.0578
2940	167.0614
2941	157.9416
2942	165.6905
2943	163.3578
2944	174.6986
2945	199.9134
2946	202.1308
2947	221.0054
2948	224.8832
2949	216.8025
2950	186.4825
2951	138.6198
2952	155.1264
2953	149.2354
2954	151.9313
2955	170.1973
2956	174.5675
2957	158.4953
2958	127.0832
2959	121.4745
2960	139.6588
2961	150.5623
2962	143.9397
2963	134.5587
2964	113.0491
2965	81.70773
2966	60.18484
2967	65.31387
2968	77.74722
2969	90.4403
2970	103.6429
2971	122.4652
2972	141.069
2973	136.8743
2974	144.0507
2975	133.074
2976	121.0854
2977	123.0935
2978	105.4277
2979	102.4223
2980	98.97684
2981	107.8151
2982	121.1948
2983	114.6759
2984	116.4764
2985	117.0768
2986	119.6381
2987	125.8606
2988	139.0612
2989	161.3635
2990	152.1752
2991	140.1952
2992	131.6393
2993	121.6818
2994	109.2616
2995	89.71233
2996	73.29137
2997	52.89687
2998	38.56522
2999	41.17132
3000	48.85566
3001	94.61548
3002	127.3336
3003	145.2742
3004	147.2238
3005	124.9179
3006	113.2803
3007	99.27061
3008	104.5133
3009	114.7927
3010	126.8536
3011	163.348
3012	154.7759
3013	152.6458
3014	155.9495
3015	154.1602
3016	138.5402
3017	103.2674
3018	95.42155
3019	74.59233
3020	59.89801
3021	68.76939
3022	79.16386
3023	78.59155
3024	74.93896
3025	83.79703
3026	108.5911
3027	138.8764
3028	158.6237
3029	152.626
3030	135.5359
3031	110.2008
3032	88.5854
3033	82.00708
3034	87.04028
3035	86.50673
3036	99.25772
3037	110.6946
3038	111.6183
3039	108.2116
3040	107.9591
3041	106.0498
3042	114.6108
3043	142.1808
3044	157.4261
3045	148.498
3046	168.9225
3047	173.9896
3048	164.0099
3049	145.7553
3050	141.0197
3051	149.7933
3052	134.5773
3053	128.2568
3054	145.4443
3055	151.8469
3056	135.4399
3057	115.418
3058	96.9025
3059	73.84224
3060	50.28362
3061	59.65579
3062	81.67923
3063	91.59138
3064	118.1854
3065	114.2022
3066	118.3943
3067	132.0322
3068	150.0605
3069	155.4168
3070	133.6535
3071	128.507
3072	128.9245
3073	151.1435
3074	178.418
3075	184.7803
3076	167.4706
3077	132.2662
3078	90.75917
3079	69.7761
3080	68.34488
3081	83.04715
3082	106.5346
3083	109.3775
3084	133.5586
3085	157.3972
3086	169.6423
3087	163.4942
3088	140.0268
3089	109.7906
3090	80.9099
3091	120.3835
3092	161.1111
3093	194.3884
3094	230.7085
3095	237.0071
3096	212.3413
3097	185.4209
3098	195.6761
3099	196.7357
3100	184.1717
3101	187.4581
3102	176.8429
3103	160.6881
3104	157.1388
3105	173.931
3106	189.5817
3107	190.25
3108	191.616
3109	202.6512
3110	195.6604
3111	198.8208
3112	198.1773
3113	175.9168
3114	143.3996
3115	128.2297
3116	132.737
3117	115.4353
3118	94.66881
3119	87.41326
3120	80.99245
3121	70.79881
3122	94.05503
3123	126.9788
3124	139.9471
3125	152.7502
3126	169.9791
3127	156.8293
3128	112.9148
3129	119.4832
3130	124.8213
3131	151.9972
3132	191.9056
3133	213.7924
3134	193.4452
3135	156.2639
3136	159.986
3137	134.4733
3138	131.9424
3139	139.0165
3140	135.1523
3141	123.3557
3142	128.5924
3143	165.3777
3144	163.654
3145	149.7247
3146	136.6008
3147	124.8054
3148	120.6455
3149	138.0666
3150	171.1114
3151	190.3644
3152	177.7366
3153	173.6003
3154	168.7784
3155	145.3545
3156	123.7849
3157	127.8406
3158	153.7336
3159	156.7403
3160	181.2464
3161	196.041
3162	169.7662
3163	129.5205
3164	117.3988
3165	135.4146
3166	148.7744
3167	160.4259
3168	147.9124
3169	110.9473
3170	73.28954
3171	61.02508
3172	82.91424
3173	114.5597
3174	136.4361
3175	148.6024
3176	156.4377
3177	163.4083
3178	170.6619
3179	171.0687
3180	143.3401
3181	133.7974
3182	132.2144
3183	141.6014
3184	162.1589
3185	174.6749
3186	159.6016
3187	134.8576
3188	137.9298
3189	131.3092
3190	127.6339
3191	130.4209
3192	130.8019
3193	130.4982
3194	141.3004
3195	146.1684
3196	109.3229
3197	80.17713
3198	46.55439
3199	48.18658
3200	81.18176
