RamanShift	Intensity
190	3096.692
191	3052.137
192	3008.904
193	2975.031
194	2927.876
195	2881.352
196	2839.094
197	2808.815
198	2780.793
199	2735.448
200	2692.566
201	2646.869
202	2608.376
203	2557.054
204	2492.007
205	2430.32
206	2368.716
207	2323.694
208	2274.968
209	2239.204
210	2209.398
211	2186.741
212	2169.392
213	2139.631
214	2108.369
215	2071.509
216	2033.893
217	1984.016
218	1917.518
219	1855.66
220	1795.722
221	1758.593
222	1726.786
223	1709.559
224	1685.537
225	1645.765
226	1602.69
227	1550.397
228	1507.214
229	1470.918
230	1450.388
231	1422.391
232	1377.922
233	1337.58
234	1303.732
235	1284.103
236	1260.435
237	1237.632
238	1206.627
239	1165.447
240	1121.904
241	1069.361
242	1026.227
243	986.1732
244	960.7707
245	937.3935
246	913.8284
247	889.9236
248	850.1539
249	813.6417
250	784.0668
251	768.0953
252	746.8269
253	716.1807
254	688.8192
255	664.6593
256	650.9038
257	636.2996
258	626.7424
259	618.4163
260	611.0215
261	601.5669
262	584.614
263	566.0044
264	550.1857
265	534.371
266	499.2657
267	444.9516
268	392.8732
269	356.383
270	332.8649
271	297.2932
272	264.2681
273	227.5109
274	194.1329
275	168.1553
276	150.0403
277	144.7854
278	138.606
279	139.9766
280	144.6067
281	151.6626
282	156.0319
283	154.0171
284	146.6628
285	138.4731
286	125.752
287	102.9491
288	74.07034
289	47.20566
290	27.34351
291	21.69817
292	29.93825
293	48.46693
294	56.61757
295	55.06427
296	52.52239
297	51.10616
298	50.65011
299	53.22127
300	55.29772
301	51.85665
302	45.86284
303	44.22202
304	48.55329
305	56.40809
306	66.9493
307	70.69768
308	56.438
309	34.43334
310	23.52688
311	27.24891
312	32.10015
313	32.52383
314	32.76105
315	34.50185
316	35.10326
317	32.49052
318	26.82638
319	18.40141
320	9.29216
321	5.964639
322	12.20019
323	25.95548
324	42.7063
325	59.32428
326	74.15115
327	83.75678
328	91.21113
329	98.22357
330	99.07247
331	93.23675
332	83.5127
333	75.79321
334	75.09149
335	87.01014
336	112.0057
337	140.012
338	161.59
339	174.6419
340	182.2853
341	186.8766
342	211.0589
343	252.0652
344	288.1123
345	306.3905
346	309.9455
347	312.3783
348	306.0326
349	302.5976
350	299.8255
351	292.841
352	281.7066
353	267.7461
354	250.2363
355	241.0083
356	250.5192
357	268.7337
358	267.0052
359	244.0586
360	223.0175
361	215.269
362	209.5842
363	196.0843
364	181.5327
365	164.3725
366	149.5774
367	136.743
368	128.3393
369	116.981
370	97.84649
371	80.47708
372	65.74851
373	59.71452
374	55.42253
375	57.76826
376	69.16858
377	88.70273
378	101.7814
379	95.94143
380	85.40453
381	90.79536
382	105.0006
383	118.0032
384	126.5212
385	132.3524
386	134.8082
387	129.8964
388	114.7693
389	101.4987
390	108.0714
391	123.8337
392	118.5606
393	90.12051
394	69.40244
395	70.67636
396	79.30571
397	81.01487
398	79.82924
399	72.02662
400	63.6774
401	67.78708
402	86.94236
403	110.6054
404	131.379
405	152.4043
406	182.8866
407	208.8718
408	229.9427
409	237.1824
410	235.5358
411	224.4505
412	211.7755
413	204.3745
414	202.2533
415	204.9765
416	210.1913
417	208.6493
418	202.503
419	200.7463
420	205.0364
421	207.0119
422	201.6373
423	197.6694
424	203.5325
425	212.3225
426	216.1989
427	213.1458
428	205.5439
429	193.8928
430	175.8578
431	153.2491
432	130.1478
433	105.5832
434	90.26405
435	80.87435
436	85.27483
437	101.3223
438	125.9328
439	147.2499
440	154.9201
441	155.9084
442	162.7443
443	165.3416
444	162.4826
445	153.9252
446	144.0838
447	135.6479
448	133.3118
449	139.6343
450	147.7059
451	149.7019
452	148.2392
453	146.8241
454	144.693
455	140.8925
456	138.4054
457	144.9152
458	163.2342
459	189.0501
460	217.9157
461	244.1673
462	274.722
463	292.8154
464	296.8432
465	283.4176
466	271.5238
467	267.063
468	258.8342
469	240.7585
470	230.743
471	236.2697
472	261.0526
473	299.7843
474	344.1788
475	382.5926
476	404.7773
477	427.1442
478	454.682
479	478.5967
480	502.6156
481	519.5105
482	541.0683
483	555.3988
484	563.0615
485	560.8603
486	559.8881
487	563.3212
488	561.1139
489	549.8533
490	531.0444
491	506.4995
492	481.8534
493	456.5335
494	439.4736
495	425.3801
496	418.2511
497	414.8148
498	413.1664
499	410.8637
500	400.4926
501	393.3941
502	398.3262
503	412.0811
504	424.5014
505	432.5392
506	436.8117
507	435.8254
508	433.2862
509	432.881
510	431.028
511	429.6225
512	420.6672
513	394.7542
514	361.1416
515	331.1721
516	315.516
517	316.8321
518	336.4093
519	354.2397
520	352.0352
521	344.8059
522	348.7254
523	355.1335
524	355.6959
525	353.1928
526	355.046
527	362.6725
528	374.3406
529	388.1382
530	415.9116
531	465.5253
532	516.4888
533	563.969
534	592.4524
535	621.3959
536	633.0175
537	629.2065
538	606.5165
539	577.0989
540	548.766
541	516.6049
542	475.3237
543	444.814
544	423.1495
545	422.5639
546	429.3049
547	443.6616
548	452.3866
549	450.4701
550	440.7245
551	424.3035
552	402.5803
553	378.8567
554	352.1102
555	312.1744
556	275.8076
557	242.4068
558	224.3211
559	216.4723
560	221.4321
561	220.8231
562	208.7802
563	197.1806
564	190.8869
565	187.9339
566	182.7163
567	182.0233
568	189.7266
569	200.5218
570	201.7413
571	193.8134
572	189.3731
573	191.2113
574	192.3562
575	190.5812
576	179.4078
577	152.9619
578	125.8556
579	107.663
580	105.1781
581	113.469
582	131.3081
583	141.5935
584	141.1446
585	142.8776
586	150.2453
587	161.2921
588	177.2791
589	187.0082
590	184.9056
591	171.6672
592	154.7117
593	139.8503
594	133.7225
595	141.1145
596	157.6495
597	180.2479
598	200.8489
599	212.6102
600	218.2896
601	223.2297
602	220.7167
603	216.4968
604	202.4151
605	171.4302
606	136.3246
607	113.876
608	113.1693
609	122.8838
610	140.3913
611	154.3077
612	156.3347
613	156.3486
614	161.845
615	170.3349
616	184.7868
617	198.1686
618	206.2483
619	205.4341
620	200.3346
621	190.9387
622	182.2899
623	176.5052
624	162.4349
625	136.6273
626	112.8785
627	100.0033
628	99.97984
629	104.6644
630	117.092
631	128.1933
632	136.7197
633	144.1053
634	147.3058
635	149.929
636	150.513
637	142.6911
638	125.4003
639	112.5859
640	114.6523
641	124.1816
642	129.0527
643	137.3286
644	156.2905
645	177.8579
646	197.9864
647	209.0092
648	211.815
649	203.1104
650	187.691
651	168.8345
652	152.1759
653	142.7063
654	130.0092
655	100.1816
656	75.63384
657	68.51583
658	74.21878
659	67.2794
660	57.79547
661	54.43656
662	62.06234
663	81.80496
664	111.6587
665	138.2285
666	154.0053
667	172.8387
668	201.7993
669	235.4724
670	276.5491
671	306.8189
672	329.062
673	331.4693
674	331.3384
675	321.2374
676	307.6649
677	289.7223
678	258.3485
679	219.1173
680	184.0832
681	163.5823
682	154.6356
683	154.43
684	157.9884
685	153.7802
686	143.8526
687	125.3652
688	106.1173
689	88.99777
690	84.16273
691	96.26528
692	120.5032
693	126.9751
694	113.7549
695	118.9015
696	150.6457
697	171.6656
698	163.9658
699	142.8245
700	121.9158
701	102.8074
702	87.08788
703	83.28386
704	92.06627
705	104.107
706	90.49677
707	65.12193
708	62.83371
709	86.65446
710	115.0022
711	139.5974
712	160.8647
713	174.0126
714	180.2873
715	182.5926
716	176.7506
717	165.6154
718	150.7288
719	135.7444
720	123.0212
721	106.9322
722	98.45466
723	100.8941
724	114.9485
725	131.3208
726	143.0911
727	141.7483
728	126.4876
729	119.0077
730	127.5638
731	134.9798
732	133.5202
733	127.5295
734	119.8003
735	109.4555
736	94.70985
737	87.86471
738	98.88371
739	118.1432
740	125.3163
741	123.4145
742	127.304
743	131.4044
744	125.83
745	109.9485
746	92.7363
747	79.21962
748	69.12218
749	65.447
750	75.2643
751	99.17439
752	126.4743
753	146.8708
754	160.0017
755	172.4545
756	180.2413
757	197.959
758	207.5899
759	195.0459
760	172.7358
761	168.9444
762	187.2269
763	220.278
764	258.9988
765	286.4278
766	295.7873
767	324.8913
768	379.3876
769	442.5152
770	499.4265
771	546.4849
772	585.5528
773	612.6655
774	645.463
775	667.1396
776	689.0996
777	695.1351
778	686.689
779	671.3377
780	675.2267
781	690.6262
782	698.2973
783	696.4355
784	692.9825
785	683.317
786	655.0427
787	609.431
788	553.7575
789	500.987
790	451.2687
791	413.132
792	388.053
793	372.0728
794	368.8882
795	369.9867
796	371.1744
797	359.2817
798	342.2654
799	327.4417
800	311.9
801	287.7918
802	260.9169
803	229.3065
804	202.2423
805	172.5029
806	154.2686
807	151.5455
808	168.4634
809	187.2181
810	204.7824
811	234.7799
812	274.2372
813	311.775
814	337.7949
815	357.1017
816	372.1378
817	380.2007
818	385.563
819	387.2327
820	390.4531
821	393.7092
822	398.5231
823	405.8018
824	417.3544
825	432.1288
826	452.5575
827	472.3165
828	491.6109
829	507.349
830	532.9413
831	555.951
832	563.7948
833	554.8065
834	550.4511
835	557.6082
836	584.2126
837	631.2823
838	688.6786
839	746.1607
840	809.7274
841	874.6089
842	946.6758
843	1028.142
844	1100.587
845	1159.983
846	1201.677
847	1246.777
848	1271.865
849	1287.144
850	1276.67
851	1256.544
852	1214.871
853	1152.171
854	1084.409
855	1014.883
856	957.8809
857	892.1799
858	838.5929
859	785.8796
860	744.9813
861	688.7526
862	633.282
863	577.972
864	539.4758
865	499.9757
866	470.7285
867	448.0909
868	438.787
869	442.2777
870	456.1766
871	460.5844
872	445.4879
873	420.4505
874	391.218
875	352.7627
876	307.3941
877	270.8373
878	253.3189
879	247.4278
880	236.689
881	233.3908
882	238.566
883	239.4322
884	217.7436
885	192.5616
886	183.5883
887	186.6168
888	182.885
889	185.5318
890	202.6147
891	226.6008
892	245.1053
893	258.0137
894	279.2684
895	302.7114
896	328.9955
897	353.3968
898	383.0037
899	409.4087
900	436.1293
901	453.7867
902	465.3923
903	464.943
904	452.2266
905	429.3754
906	408.5886
907	396.3474
908	382.1209
909	365.5674
910	343.7044
911	318.6561
912	296.5648
913	282.5899
914	274.7458
915	271.6236
916	269.9592
917	265.6176
918	262.317
919	261.1932
920	255.5266
921	241.1078
922	223.5426
923	207.089
924	193.1262
925	180.1176
926	170.8715
927	161.4853
928	153.9183
929	141.8995
930	136.7062
931	142.198
932	156.6186
933	171.0847
934	185.6748
935	201.9007
936	213.896
937	228.1512
938	231.334
939	222.2594
940	195.8788
941	153.2106
942	108.6398
943	74.05721
944	59.95923
945	45.69236
946	40.77685
947	34.63256
948	36.30558
949	52.44219
950	78.1846
951	101.872
952	116.0744
953	122.4005
954	119.2839
955	120.2734
956	125.0788
957	130.6944
958	137.1714
959	147.9576
960	162.7459
961	186.096
962	214.2703
963	245.3411
964	269.8944
965	280.285
966	271.8682
967	262.3226
968	254.1777
969	238.7841
970	219.107
971	201.768
972	192.1031
973	180.7253
974	168.4144
975	155.3947
976	144.0225
977	130.6585
978	117.881
979	119.1905
980	137.5151
981	157.0912
982	169.0921
983	182.8379
984	198.5973
985	213.1954
986	222.6909
987	218.7167
988	198.9299
989	175.8547
990	159.1915
991	146.6024
992	140.1457
993	132.3664
994	121.0396
995	121.6482
996	140.2267
997	171.1469
998	206.7092
999	240.425
1000	263.7535
1001	282.302
1002	297.0191
1003	288.9099
1004	253.9985
1005	206.8502
1006	163.0159
1007	126.9268
1008	105.4598
1009	86.27165
1010	62.43513
1011	44.31807
1012	35.11583
1013	35.93074
1014	44.51548
1015	47.16517
1016	35.41161
1017	31.86954
1018	46.66226
1019	58.91127
1020	57.89673
1021	61.06216
1022	75.36382
1023	87.86795
1024	92.06004
1025	91.3195
1026	87.81158
1027	89.29649
1028	100.064
1029	113.878
1030	125.8616
1031	123.3181
1032	101.7978
1033	90.48795
1034	104.6544
1035	125.5669
1036	143.149
1037	155.4323
1038	159.0073
1039	173.6967
1040	205.2084
1041	240.0665
1042	266.6387
1043	285.1373
1044	292.5211
1045	298.5511
1046	307.3615
1047	322.6871
1048	342.8263
1049	358.93
1050	365.0974
1051	366.1173
1052	362.519
1053	354.5303
1054	344.1
1055	330.3148
1056	317.1741
1057	306.9707
1058	304.1991
1059	307.9822
1060	318.0525
1061	330.3564
1062	341.3919
1063	351.1024
1064	355.1808
1065	352.9183
1066	342.8758
1067	326.0829
1068	308.445
1069	296.4001
1070	295.7572
1071	299.7373
1072	310.0906
1073	324.9604
1074	343.9517
1075	371.9372
1076	398.0551
1077	413.5856
1078	416.6219
1079	431.2519
1080	448.8722
1081	459.7371
1082	461.7962
1083	464.1654
1084	468.2062
1085	485.8417
1086	502.635
1087	504.2735
1088	486.5945
1089	454.0514
1090	424.3716
1091	418.3246
1092	429.3358
1093	428.4868
1094	424.942
1095	421.3241
1096	420.2247
1097	425.7571
1098	428.6342
1099	418.977
1100	404.2104
1101	390.7054
1102	386.8146
1103	396.7102
1104	414.4992
1105	431.2585
1106	442.8548
1107	446.4317
1108	438.1415
1109	419.748
1110	401.065
1111	391.0873
1112	383.6741
1113	376.4252
1114	362.0851
1115	339.2595
1116	321.3416
1117	315.1118
1118	307.457
1119	297.0706
1120	291.9817
1121	295.6581
1122	305.2311
1123	318.1078
1124	330.2054
1125	335.9423
1126	330.5252
1127	318.3223
1128	324.3638
1129	343.6128
1130	351.4817
1131	347.2651
1132	345.9681
1133	341.667
1134	326.0379
1135	303.862
1136	284.5964
1137	268.9379
1138	245.3064
1139	226.8541
1140	217.2786
1141	214.4897
1142	204.7175
1143	191.5267
1144	171.404
1145	155.0945
1146	146.9998
1147	146.556
1148	149.3031
1149	146.5442
1150	130.9309
1151	115.7143
1152	109.5829
1153	98.41254
1154	78.77222
1155	56.52507
1156	38.7543
1157	29.3536
1158	32.66028
1159	42.29361
1160	54.22747
1161	61.87366
1162	62.97183
1163	68.77894
1164	74.72848
1165	71.47508
1166	57.87607
1167	38.23759
1168	20.53073
1169	11.98835
1170	18.97129
1171	35.64949
1172	59.17247
1173	81.53265
1174	97.10796
1175	107.7401
1176	110.7253
1177	115.3017
1178	109.2082
1179	88.28293
1180	68.39922
1181	62.13567
1182	64.34148
1183	71.48552
1184	83.79258
1185	97.81892
1186	113.3434
1187	126.6784
1188	132.896
1189	129.3823
1190	125.2461
1191	121.393
1192	113.5862
1193	107.146
1194	109.7995
1195	124.6454
1196	148.7789
1197	176.874
1198	205.2692
1199	221.0847
1200	225.7582
1201	219.2845
1202	217.9346
1203	218.7537
1204	223.5308
1205	227.5059
1206	225.6994
1207	233.3369
1208	257.3075
1209	290.3116
1210	323.7343
1211	350.6065
1212	362.1061
1213	360.9051
1214	348.1425
1215	342.0785
1216	342.2839
1217	329.7433
1218	311.5407
1219	303.1241
1220	310.1021
1221	329.9894
1222	349.9046
1223	347.2103
1224	335.3211
1225	338.8672
1226	349.9982
1227	362.6358
1228	377.6006
1229	392.8506
1230	405.7206
1231	414.8014
1232	426.88
1233	442.7063
1234	442.5724
1235	425.7757
1236	431.6575
1237	463.025
1238	490.5258
1239	506.0775
1240	519.4326
1241	522.6416
1242	515.5238
1243	506.1388
1244	516.0104
1245	532.3836
1246	537.4322
1247	537.7733
1248	540.1893
1249	545.1887
1250	554.546
1251	563.9995
1252	570.044
1253	569.4715
1254	564.5107
1255	583.8958
1256	625.8039
1257	650.8566
1258	642.1293
1259	602.2952
1260	546.5047
1261	515.5292
1262	505.6661
1263	477.3993
1264	454.5055
1265	438.8266
1266	444.0331
1267	468.0195
1268	499.1699
1269	523.8806
1270	528.2452
1271	507.248
1272	493.1628
1273	498.829
1274	504.0293
1275	507.699
1276	523.5271
1277	544.5461
1278	552.1219
1279	549.9313
1280	566.0043
1281	575.9455
1282	552.0547
1283	515.6139
1284	494.4266
1285	482.9619
1286	474.931
1287	476.955
1288	487.4131
1289	496.3665
1290	499.0852
1291	510.3103
1292	526.8473
1293	530.2375
1294	521.1066
1295	520.2955
1296	525.9269
1297	530.8221
1298	536.5005
1299	545.6048
1300	554.0204
1301	560.2364
1302	560.1459
1303	553.506
1304	535.9681
1305	510.5698
1306	494.8033
1307	498.0729
1308	506.9186
1309	519.2746
1310	535.293
1311	546.1683
1312	541.5033
1313	528.1884
1314	528.9855
1315	528.1417
1316	508.0087
1317	494.2319
1318	505.2328
1319	508.2253
1320	487.57
1321	464.3944
1322	449.0618
1323	431.9601
1324	420.5017
1325	420.4463
1326	432.4363
1327	439.4284
1328	449.5446
1329	477.1834
1330	501.9139
1331	507.1129
1332	500.8234
1333	494.4153
1334	486.1204
1335	478.8335
1336	465.095
1337	448.4594
1338	437.9278
1339	441.383
1340	458.7197
1341	485.0598
1342	507.7301
1343	522.3591
1344	533.9025
1345	537.1525
1346	536.6511
1347	533.08
1348	529.7698
1349	516.2553
1350	494.0198
1351	476.0998
1352	471.809
1353	479.145
1354	494.0553
1355	501.0695
1356	499.928
1357	497.3198
1358	492.6812
1359	490.0953
1360	482.2518
1361	466.4644
1362	459.5696
1363	469.1892
1364	490.4049
1365	513.0398
1366	518.6243
1367	504.04
1368	490.7951
1369	472.4793
1370	438.0804
1371	411.6107
1372	407.6898
1373	423.2429
1374	448.477
1375	467.224
1376	467.9964
1377	459.1253
1378	445.4118
1379	445.0121
1380	447.9337
1381	422.9091
1382	391.6413
1383	378.5912
1384	383.9666
1385	400.6692
1386	415.9667
1387	419.6908
1388	431.08
1389	450.7285
1390	467.5296
1391	473.1071
1392	467.2336
1393	452.2483
1394	441.3619
1395	433.578
1396	426.9691
1397	418.1181
1398	403.733
1399	399.8455
1400	410.6566
1401	411.8086
1402	403.9805
1403	410.0998
1404	424.2336
1405	431.7022
1406	429.2994
1407	417.8413
1408	406.2032
1409	403.8611
1410	409.3911
1411	421.4992
1412	437.6618
1413	455.5435
1414	480.841
1415	502.4097
1416	510.2906
1417	506.1888
1418	507.1024
1419	508.9641
1420	512.4371
1421	521.7715
1422	536.4794
1423	550.6218
1424	559.0842
1425	566.0645
1426	569.5933
1427	575.2919
1428	579.4221
1429	580.9066
1430	582.8987
1431	589.1575
1432	593.0543
1433	591.6011
1434	585.4928
1435	577.8524
1436	577.257
1437	582.0585
1438	580.6334
1439	580.9813
1440	590.0222
1441	606.5668
1442	627.0953
1443	643.9534
1444	649.601
1445	640.2827
1446	621.949
1447	623.5847
1448	635.5594
1449	629.4133
1450	618.2897
1451	614.0168
1452	617.6317
1453	629.598
1454	661.7142
1455	703.8123
1456	717.1339
1457	700.832
1458	702.585
1459	704.0812
1460	686.4743
1461	658.2727
1462	629.9267
1463	585.3614
1464	532.1883
1465	503.6333
1466	507.8629
1467	499.2117
1468	489.5673
1469	490.3799
1470	496.0801
1471	496.648
1472	495.8826
1473	493.7228
1474	474.4113
1475	440.8398
1476	415.1604
1477	400.8184
1478	379.1388
1479	355.2375
1480	323.7252
1481	294.6599
1482	274.3281
1483	262.9042
1484	261.5478
1485	262.0266
1486	260.0009
1487	243.1534
1488	223.4434
1489	215.8291
1490	208.7481
1491	192.4503
1492	182.1902
1493	184.2618
1494	195.1922
1495	203.217
1496	180.5557
1497	139.4813
1498	104.9261
1499	88.73887
1500	96.04079
1501	112.7743
1502	127.4232
1503	144.8145
1504	158.9048
1505	171.8371
1506	174.2105
1507	165.7921
1508	151.559
1509	141.7774
1510	136.0884
1511	135.5578
1512	133.1373
1513	128.142
1514	119.2197
1515	112.9539
1516	111.2144
1517	128.912
1518	169.6119
1519	199.2084
1520	201.6486
1521	199.257
1522	192.8719
1523	188.8358
1524	182.0114
1525	166.5429
1526	149.4532
1527	136.763
1528	139.4211
1529	155.0481
1530	150.2255
1531	132.5854
1532	130.347
1533	145.0756
1534	172.9012
1535	197.0496
1536	203.8918
1537	204.2532
1538	199.9415
1539	195.7912
1540	193.5355
1541	194.611
1542	196.6199
1543	195.4666
1544	207.2251
1545	231.7421
1546	231.3535
1547	209.0328
1548	208.8828
1549	220.0037
1550	220.5292
1551	224.5853
1552	238.0177
1553	242.2446
1554	234.3073
1555	240.5782
1556	245.7554
1557	213.164
1558	177.1479
1559	174.0748
1560	175.1689
1561	168.776
1562	176.0802
1563	197.9422
1564	222.6083
1565	240.1341
1566	246.3666
1567	241.4817
1568	232.8345
1569	218.4797
1570	201.837
1571	177.5931
1572	162.0449
1573	171.1438
1574	185.2454
1575	176.886
1576	165.0522
1577	159.7766
1578	164.3743
1579	177.2273
1580	186.4441
1581	194.1565
1582	205.0676
1583	223.0526
1584	248.4643
1585	265.5441
1586	267.2879
1587	268.346
1588	261.3723
1589	242.8502
1590	224.1553
1591	215.8289
1592	207.9524
1593	203.1418
1594	210.9072
1595	231.225
1596	257.4874
1597	276.4288
1598	279.0356
1599	277.3923
1600	276.3279
1601	271.5406
1602	263.6184
1603	253.8033
1604	246.2177
1605	243.5837
1606	241.0039
1607	236.3897
1608	232.2364
1609	230.2891
1610	230.1039
1611	230.7133
1612	228.9103
1613	230.0608
1614	235.9139
1615	244.0974
1616	248.9047
1617	241.6714
1618	230.8983
1619	230.796
1620	230.9179
1621	225.993
1622	217.765
1623	207.7613
1624	194.4631
1625	186.3377
1626	187.4638
1627	192.9065
1628	197.4871
1629	202.6932
1630	208.022
1631	217.2579
1632	224.1647
1633	224.8414
1634	221.8649
1635	219.3554
1636	225.5534
1637	240.814
1638	261.9779
1639	276.612
1640	275.9431
1641	264.3125
1642	248.8529
1643	231.9298
1644	219.4655
1645	207.2162
1646	203.3257
1647	208.3873
1648	215.1543
1649	217.3549
1650	218.6791
1651	216.7549
1652	207.092
1653	201.5496
1654	211.3399
1655	221.9386
1656	226.2744
1657	233.7226
1658	242.5692
1659	253.3156
1660	263.3516
1661	272.9597
1662	271.3212
1663	258.4374
1664	251.1954
1665	248.1273
1666	240.9104
1667	226.428
1668	204.9258
1669	195.2189
1670	204.3989
1671	219.7442
1672	231.0922
1673	225.2601
1674	218.2932
1675	220.986
1676	223.1032
1677	221.8205
1678	214.3918
1679	205.8135
1680	201.641
1681	209.1564
1682	226.8642
1683	232.8082
1684	228.3793
1685	233.5155
1686	236.5204
1687	231.516
1688	235.0306
1689	245.6662
1690	239.1671
1691	226.7679
1692	230.3293
1693	233.037
1694	226.7575
1695	223.7537
1696	225.1742
1697	221.6987
1698	228.8785
1699	257.9481
1700	282.5644
1701	290.0683
1702	301.2383
1703	308.9832
1704	309.7874
1705	304.6638
1706	298.7589
1707	287.3015
1708	275.8062
1709	276.9194
1710	279.4061
1711	264.5962
1712	258.2921
1713	269.1756
1714	275.399
1715	278.2863
1716	290.9849
1717	296.3374
1718	284.9822
1719	275.3707
1720	270.2299
1721	253.9954
1722	240.3999
1723	242.6677
1724	242.4844
1725	232.7856
1726	230.119
1727	229.1539
1728	212.1651
1729	199.4767
1730	204.408
1731	212.7417
1732	220.1363
1733	229.6886
1734	230.4181
1735	215.9992
1736	193.9138
1737	175.4103
1738	177.0757
1739	193.1104
1740	197.6862
1741	209.1064
1742	232.0686
1743	252.8602
1744	257.3887
1745	242.1007
1746	212.7769
1747	186.7312
1748	174.3099
1749	178.5826
1750	176.263
1751	170.8154
1752	164.5563
1753	163.4796
1754	168.0841
1755	165.0878
1756	155.6733
1757	148.9718
1758	132.1298
1759	102.4649
1760	81.16022
1761	73.05485
1762	54.65189
1763	45.70787
1764	54.79352
1765	74.05527
1766	98.34173
1767	133.3986
1768	158.2066
1769	158.0915
1770	154.9981
1771	157.3987
1772	146.3209
1773	128.1764
1774	115.0003
1775	112.1884
1776	120.9299
1777	132.7321
1778	139.4955
1779	134.2216
1780	121.1258
1781	107.2578
1782	81.92227
1783	57.14324
1784	49.70676
1785	59.77396
1786	75.39163
1787	98.32033
1788	123.4261
1789	151.517
1790	174.1983
1791	191.114
1792	198.8322
1793	197.1678
1794	197.8311
1795	186.7498
1796	150.8399
1797	122.1741
1798	116.127
1799	107.4766
1800	107.6818
1801	125.4959
1802	141.4161
1803	142.7131
1804	141.4252
1805	133.9687
1806	117.1972
1807	101.6575
1808	94.91285
1809	88.53307
1810	90.3784
1811	109.0209
1812	132.1961
1813	147.1844
1814	152.4943
1815	149.277
1816	154.8038
1817	155.2803
1818	146.1281
1819	149.3038
1820	163.8858
1821	171.0463
1822	178.0146
1823	189.485
1824	193.2255
1825	187.5994
1826	184.3939
1827	177.1277
1828	163.668
1829	154.6337
1830	152.7641
1831	147.0169
1832	146.1164
1833	153.0807
1834	150.8587
1835	140.3479
1836	139.8888
1837	137.9179
1838	125.163
1839	112.6867
1840	106.0717
1841	102.7499
1842	104.1909
1843	106.6452
1844	98.41467
1845	82.75279
1846	75.26399
1847	75.23694
1848	78.75024
1849	94.37706
1850	115.5296
1851	128.6688
1852	130.5587
1853	124.7758
1854	120.2953
1855	120.4707
1856	124.2563
1857	126.6116
1858	123.5741
1859	124.691
1860	132.1064
1861	146.9567
1862	153.9575
1863	144.5137
1864	131.3862
1865	120.8024
1866	117.4566
1867	112.484
1868	101.6848
1869	103.7727
1870	120.4259
1871	144.7105
1872	161.269
1873	158.0261
1874	134.5217
1875	106.1975
1876	98.5766
1877	89.11938
1878	72.30709
1879	66.72546
1880	77.59159
1881	99.00539
1882	128.5911
1883	155.4612
1884	169.735
1885	171.0486
1886	172.498
1887	165.2322
1888	149.7641
1889	128.6906
1890	108.6221
1891	94.94505
1892	90.78361
1893	95.02338
1894	94.51416
1895	87.99172
1896	76.4939
1897	79.11009
1898	90.86699
1899	90.43413
1900	88.41974
1901	90.68537
1902	96.52206
1903	102.6858
1904	104.546
1905	108.4326
1906	115.8582
1907	123.5727
1908	128.5891
1909	130.1172
1910	140.2649
1911	155.014
1912	156.5787
1913	147.2587
1914	135.6396
1915	126.7676
1916	122.602
1917	115.2907
1918	108.9029
1919	104.9761
1920	102.8036
1921	103.5651
1922	106.1148
1923	105.9142
1924	102.5458
1925	102.0159
1926	112.0341
1927	136.0795
1928	167.5786
1929	189.6623
1930	191.2172
1931	180.8403
1932	174.3662
1933	155.3616
1934	124.6548
1935	85.54873
1936	62.19645
1937	68.61852
1938	90.56448
1939	113.4725
1940	114.353
1941	119.9193
1942	134.1654
1943	150.119
1944	149.4009
1945	125.4812
1946	101.5894
1947	89.96966
1948	89.80808
1949	92.58302
1950	92.97607
1951	107.1521
1952	126.6633
1953	138.3869
1954	134.3656
1955	116.8194
1956	105.0938
1957	101.4382
1958	106.1369
1959	111.7958
1960	119.6582
1961	135.3073
1962	142.9926
1963	135.3283
1964	119.9582
1965	104.7684
1966	99.26427
1967	96.61857
1968	92.16322
1969	73.39499
1970	62.9061
1971	70.29151
1972	65.16834
1973	58.96808
1974	69.34332
1975	79.51138
1976	86.39876
1977	103.959
1978	125.5124
1979	143.5085
1980	152.8286
1981	143.378
1982	114.8562
1983	95.99951
1984	99.42703
1985	98.3609
1986	101.4132
1987	112.0537
1988	137.7045
1989	160.1581
1990	154.8363
1991	135.4468
1992	117.5163
1993	111.7279
1994	110.0029
1995	98.95401
1996	94.42486
1997	99.39088
1998	106.634
1999	120.5627
2000	136.0478
2001	138.7945
2002	128.8321
2003	115.3842
2004	87.64788
2005	59.55606
2006	53.88995
2007	62.88342
2008	75.39875
2009	89.47115
2010	96.32637
2011	91.81366
2012	89.61182
2013	88.67175
2014	76.78488
2015	70.82001
2016	79.48631
2017	99.83287
2018	110.4916
2019	93.37823
2020	79.43587
2021	77.41139
2022	80.7301
2023	88.70282
2024	99.57908
2025	123.2477
2026	143.1775
2027	143.9625
2028	132.274
2029	112.4333
2030	93.86167
2031	76.77438
2032	67.19918
2033	69.97633
2034	84.7813
2035	102.2677
2036	119.5998
2037	126.4883
2038	119.2278
2039	101.2162
2040	85.63651
2041	90.87066
2042	102.0141
2043	104.59
2044	104.7296
2045	112.1361
2046	136.114
2047	138.9525
2048	119.0562
2049	104.4538
2050	108.3174
2051	130.0923
2052	137.2688
2053	131.2893
2054	120.6473
2055	111.8737
2056	103.6202
2057	88.02785
2058	77.27815
2059	76.70251
2060	78.79678
2061	91.16741
2062	110.5772
2063	122.4295
2064	129.5138
2065	141.1068
2066	148.0186
2067	144.1359
2068	129.1647
2069	118.2115
2070	115.9622
2071	104.4597
2072	90.42375
2073	79.26448
2074	65.77022
2075	57.1669
2076	56.53321
2077	53.70353
2078	56.12172
2079	81.54084
2080	96.92068
2081	89.69602
2082	84.44045
2083	80.80391
2084	83.23524
2085	104.2193
2086	133.9225
2087	155.0983
2088	179.3487
2089	195.2794
2090	194.2045
2091	171.7866
2092	141.5858
2093	127.8057
2094	122.1579
2095	115.8086
2096	118.922
2097	128.7203
2098	136.4145
2099	137.5233
2100	129.9189
2101	117.7886
2102	106.5953
2103	99.98599
2104	90.5956
2105	90.84969
2106	101.342
2107	102.4383
2108	108.1562
2109	127.0514
2110	133.3682
2111	118.3945
2112	87.20727
2113	69.07913
2114	73.6841
2115	83.25529
2116	92.60545
2117	99.72154
2118	121.9263
2119	141.6758
2120	145.7508
2121	132.3445
2122	114.7588
2123	112.927
2124	122.8625
2125	131.641
2126	120.4986
2127	114.1015
2128	116.5633
2129	117.777
2130	120.044
2131	118.8612
2132	102.9521
2133	88.84552
2134	86.77769
2135	82.88765
2136	85.72744
2137	95.30581
2138	82.10328
2139	63.49902
2140	67.17722
2141	73.06867
2142	80.53093
2143	93.60353
2144	108.5433
2145	117.0407
2146	115.3666
2147	95.83207
2148	70.02155
2149	66.76241
2150	69.05785
2151	63.69091
2152	65.42841
2153	68.02726
2154	64.61542
2155	56.11045
2156	52.77873
2157	64.67427
2158	89.84637
2159	112.1461
2160	112.9516
2161	99.7369
2162	82.23592
2163	74.79477
2164	61.2776
2165	42.77607
2166	30.2734
2167	35.7964
2168	57.12771
2169	75.78989
2170	83.31972
2171	80.20802
2172	95.1815
2173	111.3818
2174	111.1833
2175	99.96974
2176	88.53261
2177	89.1351
2178	77.5252
2179	58.09878
2180	44.09999
2181	53.54118
2182	79.8017
2183	95.90621
2184	111.4754
2185	123.8107
2186	132.5321
2187	122.3626
2188	97.13097
2189	75.65164
2190	70.5433
2191	82.25015
2192	88.04664
2193	91.26936
2194	93.07052
2195	95.44105
2196	97.45843
2197	98.93304
2198	100.2336
2199	100.095
2200	98.14542
2201	95.53021
2202	92.92523
2203	91.21518
2204	92.59819
2205	96.72562
2206	101.1105
2207	109.9431
2208	118.2853
2209	119.6466
2210	105.7086
2211	84.46055
2212	74.68327
2213	80.6073
2214	95.83678
2215	100.6965
2216	113.0302
2217	131.9507
2218	147.644
2219	138.2203
2220	108.3624
2221	92.24751
2222	91.83987
2223	100.9463
2224	96.08215
2225	89.9711
2226	93.39113
2227	115.3
2228	134.1314
2229	138.3025
2230	155.9715
2231	166.917
2232	160.6359
2233	150.3742
2234	133.1739
2235	115.9185
2236	119.4176
2237	125.9164
2238	117.466
2239	111.7677
2240	102.0936
2241	86.25785
2242	75.1762
2243	78.2817
2244	93.73804
2245	98.12327
2246	103.4914
2247	121.4378
2248	131.9904
2249	133.7627
2250	132.5479
2251	130.5881
2252	131.8366
2253	136.9802
2254	125.43
2255	113.2959
2256	118.8152
2257	118.7444
2258	115.7693
2259	115.3516
2260	114.03
2261	113.0636
2262	113.5149
2263	111.6047
2264	112.9034
2265	121.8755
2266	130.978
2267	136.6545
2268	138.1199
2269	136.6252
2270	138.7248
2271	149.9621
2272	157.7606
2273	169.8113
2274	192.4065
2275	213.4444
2276	213.4084
2277	186.3827
2278	157.4753
2279	141.561
2280	144.7314
2281	147.7115
2282	155.2652
2283	170.11
2284	197.112
2285	213.0203
2286	201.8416
2287	184.9785
2288	170.9362
2289	165.0817
2290	144.2775
2291	127.4326
2292	131.2327
2293	151.3065
2294	173.2299
2295	180.0649
2296	176.3595
2297	163.7663
2298	153.0125
2299	153.0852
2300	167.2648
2301	188.0542
2302	206.463
2303	210.2117
2304	195.6219
2305	171.4469
2306	147.6217
2307	139.4128
2308	156.06
2309	166.3654
2310	158.5629
2311	151.5489
2312	149.4259
2313	151.8835
2314	149.3078
2315	163.4052
2316	191.4679
2317	214.3706
2318	216.9481
2319	205.6984
2320	205.2011
2321	202.4605
2322	203.8061
2323	215.8094
2324	215.9514
2325	214.4255
2326	225.8167
2327	228.5861
2328	216.2737
2329	193.2394
2330	182.9809
2331	168.4025
2332	137.2978
2333	103.0632
2334	93.07964
2335	113.6956
2336	131.0019
2337	141.1707
2338	146.5628
2339	172.5812
2340	182.7747
2341	177.4106
2342	198.0588
2343	216.8537
2344	228.7001
2345	245.5316
2346	259.054
2347	257.0707
2348	234.8038
2349	216.8875
2350	207.4628
2351	201.2908
2352	195.8546
2353	198.6947
2354	211.2182
2355	219.6156
2356	220.1587
2357	213.4855
2358	206.209
2359	200.026
2360	199.0625
2361	207.888
2362	207.1431
2363	193.3572
2364	182.8524
2365	176.4414
2366	177.6589
2367	185.1737
2368	190.896
2369	201.7463
2370	224.0912
2371	232.4688
2372	230.4784
2373	229.7968
2374	226.5362
2375	222.1934
2376	214.3015
2377	185.7511
2378	169.6723
2379	175.919
2380	176.1462
2381	174.7832
2382	173.9837
2383	177.4213
2384	182.7154
2385	184.144
2386	178.2221
2387	180.2819
2388	186.0632
2389	186.944
2390	176.4154
2391	171.8566
2392	183.2743
2393	195.2236
2394	202.9099
2395	206.8396
2396	219.0589
2397	219.0782
2398	205.1373
2399	190.6981
2400	194.8623
2401	213.3169
2402	226.1929
2403	221.6958
2404	214.355
2405	212.8635
2406	185.0345
2407	159.2961
2408	152.8977
2409	151.2641
2410	162.5755
2411	175.766
2412	172.6389
2413	170.351
2414	161.2581
2415	141.1765
2416	136.3328
2417	149.7526
2418	172.5358
2419	196.812
2420	201.4182
2421	188.7774
2422	189.4874
2423	181.1969
2424	160.8383
2425	137.5849
2426	154.6289
2427	185.3042
2428	189.3136
2429	171.9943
2430	167.4938
2431	186.8068
2432	185.0858
2433	162.8855
2434	140.4296
2435	147.6006
2436	153.8492
2437	152.5943
2438	147.2637
2439	161.0733
2440	171.7456
2441	164.4676
2442	157.0542
2443	151.278
2444	156.4047
2445	179.1963
2446	188.2088
2447	190.8399
2448	204.9094
2449	202.334
2450	187.5582
2451	171.4566
2452	154.6577
2453	144.159
2454	146.6376
2455	163.3821
2456	188.4082
2457	209.1981
2458	214.1021
2459	202.6387
2460	170.9262
2461	135.3988
2462	115.7833
2463	128.1814
2464	162.3072
2465	186.1776
2466	209.5761
2467	219.9603
2468	210.4872
2469	187.8242
2470	169.304
2471	168.7872
2472	178.0639
2473	168.6118
2474	156.6588
2475	175.6344
2476	180.4038
2477	176.2977
2478	173.8214
2479	170.7282
2480	160.2836
2481	142.9803
2482	125.7358
2483	119.9938
2484	120.3362
2485	115.3463
2486	113.9864
2487	121.0859
2488	127.1368
2489	107.9989
2490	111.5095
2491	129.2334
2492	126.1478
2493	124.2774
2494	122.8294
2495	128.1624
2496	163.1504
2497	170.6553
2498	152.5175
2499	157.2253
2500	151.6093
2501	137.6684
2502	129.8765
2503	149.3165
2504	177.2676
2505	194.633
2506	197.6705
2507	207.2687
2508	204.0618
2509	178.4956
2510	175.5542
2511	186.4962
2512	193.7145
2513	180.0893
2514	171.6978
2515	170.0589
2516	167.0965
2517	153.6974
2518	157.6413
2519	181.6594
2520	194.2847
2521	186.9264
2522	169.5919
2523	162.7659
2524	160.9438
2525	159.9374
2526	159.8869
2527	168.7624
2528	174.7432
2529	168.6193
2530	152.4533
2531	151.2081
2532	158.4452
2533	164.6687
2534	164.309
2535	150.4293
2536	145.3452
2537	162.7151
2538	157.6334
2539	142.0103
2540	125.1098
2541	108.745
2542	105.2539
2543	118.2623
2544	139.8009
2545	163.5439
2546	174.1166
2547	169.0979
2548	161.2129
2549	158.3535
2550	162.4924
2551	165.3686
2552	149.8608
2553	115.7129
2554	86.34513
2555	86.31608
2556	80.3559
2557	107.733
2558	159.0069
2559	162.5596
2560	153.6011
2561	143.2339
2562	137.4351
2563	136.2905
2564	130.0416
2565	124.671
2566	137.4506
2567	112.113
2568	82.20139
2569	81.59036
2570	72.94479
2571	74.64576
2572	89.49232
2573	109.9853
2574	136.0224
2575	148.7715
2576	144.5496
2577	145.5563
2578	143.9381
2579	138.8785
2580	133.8169
2581	136.7713
2582	140.46
2583	138.7088
2584	131.2984
2585	131.1768
2586	127.8571
2587	117.5619
2588	113.394
2589	98.68542
2590	80.06412
2591	73.64706
2592	92.00324
2593	122.3056
2594	144.2593
2595	146.9654
2596	143.3115
2597	136.5076
2598	132.2298
2599	131.3673
2600	149.3479
2601	169.0989
2602	168.0693
2603	153.7624
2604	130.3264
2605	120.028
2606	138.5564
2607	155.3964
2608	165.8761
2609	161.7588
2610	137.9336
2611	116.7415
2612	97.23738
2613	82.07857
2614	88.23238
2615	110.6947
2616	139.6299
2617	157.8804
2618	151.6264
2619	141.8734
2620	126.1138
2621	87.17983
2622	54.92618
2623	43.32183
2624	55.51023
2625	81.20701
2626	90.23668
2627	106.1162
2628	137.4209
2629	138.9672
2630	138.5646
2631	139.6498
2632	139.7813
2633	143.9823
2634	138.8161
2635	133.1066
2636	141.1999
2637	135.8089
2638	137.4373
2639	148.6427
2640	152.9211
2641	147.4372
2642	136.6728
2643	122.6895
2644	99.32722
2645	80.61786
2646	72.07433
2647	74.28471
2648	85.80915
2649	69.80035
2650	51.58837
2651	62.49696
2652	79.26235
2653	106.0617
2654	125.4101
2655	123.5715
2656	123.4605
2657	102.4075
2658	66.34546
2659	38.97433
2660	34.21773
2661	60.57275
2662	98.16541
2663	114.8301
2664	113.8083
2665	103.2774
2666	86.1917
2667	56.57619
2668	39.09001
2669	55.1177
2670	88.69987
2671	95.54234
2672	76.28078
2673	65.18626
2674	77.61641
2675	81.22539
2676	78.33813
2677	80.8137
2678	90.36779
2679	88.01713
2680	67.42969
2681	73.90282
2682	123.4464
2683	157.6489
2684	172.0888
2685	158.6717
2686	125.0802
2687	87.71963
2688	59.43137
2689	56.72982
2690	77.10365
2691	95.76262
2692	118.1968
2693	119.7147
2694	93.91513
2695	79.32998
2696	82.98631
2697	97.95398
2698	108.3727
2699	109.4636
2700	125.2054
2701	138.3697
2702	134.2969
2703	137.0539
2704	128.2394
2705	121.7852
2706	124.5593
2707	109.3181
2708	105.6033
2709	113.3027
2710	122.2563
2711	128.3954
2712	122.7884
2713	113.5944
2714	108.3754
2715	98.43231
2716	89.05551
2717	75.78196
2718	67.2439
2719	86.73444
2720	85.73277
2721	80.59026
2722	97.80386
2723	140.6067
2724	162.0568
2725	151.5386
2726	137.8448
2727	159.8934
2728	136.4835
2729	108.344
2730	116.3154
2731	154.5647
2732	158.4243
2733	161.501
2734	179.6133
2735	193.5295
2736	169.4471
2737	154.6333
2738	163.0716
2739	170.255
2740	154.0249
2741	157.9748
2742	162.0098
2743	132.9618
2744	98.55628
2745	81.52145
2746	75.84202
2747	72.24313
2748	86.53127
2749	117.4593
2750	137.5754
2751	134.1561
2752	131.3293
2753	129.5161
2754	128.0554
2755	131.4699
2756	146.0873
2757	160.6611
2758	176.5437
2759	186.2048
2760	181.5053
2761	173.7154
2762	166.1794
2763	153.9258
2764	138.2066
2765	145.6004
2766	160.7061
2767	185.9803
2768	213.7452
2769	218.3665
2770	215.2521
2771	203.319
2772	187.3908
2773	175.3777
2774	158.5826
2775	149.5334
2776	146.7336
2777	139.5989
2778	125.7087
2779	133.3208
2780	143.1885
2781	136.2004
2782	143.6729
2783	127.8081
2784	118.7994
2785	126.7246
2786	117.9952
2787	108.2737
2788	100.6897
2789	100.905
2790	110.1929
2791	117.0154
2792	139.1016
2793	167.3506
2794	176.7222
2795	151.422
2796	138.1027
2797	125.8268
2798	108.2953
2799	104.3408
2800	135.653
2801	168.3584
2802	171.5752
2803	148.3257
2804	140.7951
2805	113.9995
2806	86.84499
2807	83.53723
2808	99.59458
2809	111.151
2810	120.0833
2811	131.2361
2812	136.8985
2813	97.91586
2814	85.60442
2815	85.23248
2816	78.61062
2817	108.6237
2818	153.8529
2819	176.5175
2820	154.9727
2821	109.2343
2822	93.10634
2823	90.23516
2824	88.75699
2825	96.79688
2826	141.7663
2827	156.4064
2828	160.0495
2829	167.0616
2830	172.8512
2831	191.8177
2832	174.4805
2833	156.4568
2834	162.3257
2835	140.8178
2836	112.526
2837	103.5415
2838	113.1906
2839	123.5991
2840	150.0512
2841	165.4827
2842	168.0457
2843	164.2187
2844	157.6069
2845	176.6376
2846	183.8023
2847	193.9591
2848	223.7429
2849	213.3064
2850	185.3018
2851	162.0289
2852	153.2963
2853	148.2425
2854	147.4006
2855	155.2637
2856	178.9618
2857	205.975
2858	202.8173
2859	191.2837
2860	183.7265
2861	177.5112
2862	164.315
2863	157.3843
2864	173.7121
2865	191.1532
2866	204.9065
2867	232.1859
2868	261.7849
2869	257.887
2870	244.2545
2871	244.8968
2872	243.7545
2873	242.7975
2874	258.5052
2875	275.868
2876	271.3964
2877	250.5956
2878	224.0215
2879	217.0226
2880	225.1705
2881	225.2334
2882	221.1229
2883	237.8671
2884	257.3138
2885	268.1548
2886	281.687
2887	310.0576
2888	320.4279
2889	319.3033
2890	323.1449
2891	331.8479
2892	327.3875
2893	321.9039
2894	316.0778
2895	301.1274
2896	273.4814
2897	270.119
2898	279.6906
2899	293.0313
2900	305.1118
2901	312.0774
2902	312.2253
2903	284.5375
2904	264.057
2905	281.2057
2906	301.2741
2907	317.1039
2908	330.1552
2909	320.4508
2910	277.5991
2911	235.4525
2912	238.8594
2913	257.5115
2914	276.1746
2915	292.8458
2916	292.2647
2917	292.3609
2918	293.4854
2919	299.3221
2920	307.8303
2921	307.0557
2922	307.9834
2923	295.4885
2924	285.006
2925	288.3705
2926	274.9661
2927	255.3078
2928	247.965
2929	252.9526
2930	259.5319
2931	266.2548
2932	262.0929
2933	263.0612
2934	277.692
2935	302.832
2936	327.2827
2937	320.8117
2938	300.3564
2939	268.3187
2940	235.4759
2941	228.6045
2942	242.3772
2943	249.5435
2944	253.6179
2945	254.3751
2946	242.2052
2947	253.8481
2948	261.2078
2949	258.743
2950	238.7355
2951	209.5482
2952	226.4907
2953	220.5872
2954	224.3769
2955	244.9719
2956	253.4271
2957	242.8195
2958	215.1976
2959	211.9104
2960	222.4806
2961	212.4911
2962	186.1519
2963	171.6726
2964	154.8271
2965	128.127
2966	108.6539
2967	117.7604
2968	128.6714
2969	142.965
2970	168.4938
2971	203.4402
2972	227.3279
2973	216.9214
2974	204.2813
2975	180.0238
2976	157.7587
2977	148.3059
2978	138.5701
2979	144.0927
2980	148.084
2981	162.6826
2982	187.9457
2983	201.029
2984	198.6144
2985	189.6856
2986	181.1656
2987	165.7614
2988	148.1395
2989	158.6351
2990	150.949
2991	143.6634
2992	145.4129
2993	152.9597
2994	154.7259
2995	137.7547
2996	127.7155
2997	107.077
2998	83.57834
2999	78.50118
3000	87.82629
3001	129.005
3002	167.7261
3003	182.9221
3004	173.6218
3005	152.0974
3006	129.5686
3007	116.96
3008	119.6287
3009	122.1161
3010	123.7429
3011	144.369
3012	145.9626
3013	138.5634
3014	131.8766
3015	124.2247
3016	106.5762
3017	83.5863
3018	89.12421
3019	83.44859
3020	74.59955
3021	70.15551
3022	58.48581
3023	54.28463
3024	57.49579
3025	69.1583
3026	88.44595
3027	114.68
3028	136.8
3029	120.1121
3030	102.0899
3031	83.06367
3032	64.3746
3033	57.18016
3034	71.19252
3035	85.96361
3036	98.51772
3037	110.6506
3038	116.7538
3039	111.7507
3040	104.7526
3041	105.6134
3042	111.7275
3043	125.4162
3044	131.1166
3045	125.0073
3046	136.2417
3047	134.454
3048	121.9074
3049	105.6271
3050	104.2038
3051	117.5183
3052	111.1178
3053	101.087
3054	109.7899
3055	110.0624
3056	96.32589
3057	88.9724
3058	85.16465
3059	66.86716
3060	39.23944
3061	38.92265
3062	50.22385
3063	55.91906
3064	90.63866
3065	87.42239
3066	89.94939
3067	112.1799
3068	138.4482
3069	138.3698
3070	110.8279
3071	112.9294
3072	91.92757
3073	90.1584
3074	111.6516
3075	125.8845
3076	114.4744
3077	79.7939
3078	58.78359
3079	46.71876
3080	43.8844
3081	57.30956
3082	81.41362
3083	90.55058
3084	108.8165
3085	127.5834
3086	137.2219
3087	133.3257
3088	115.8951
3089	84.964
3090	46.7445
3091	76.06017
3092	109.8677
3093	141.6194
3094	181.3303
3095	190.7747
3096	158.9877
3097	113.2782
3098	122.7262
3099	133.7493
3100	132.1228
3101	147.0598
3102	139.2545
3103	113.4148
3104	105.9654
3105	122.1918
3106	127.7047
3107	114.8772
3108	114.3588
3109	116.3646
3110	107.0184
3111	125.757
3112	141.9198
3113	130.3552
3114	110.3722
3115	108.0132
3116	110.6663
3117	85.12099
3118	62.54255
3119	52.6688
3120	45.5044
3121	50.86209
3122	94.99462
3123	120.6909
3124	121.0911
3125	120.1194
3126	121.6223
3127	98.99122
3128	65.11327
3129	93.79239
3130	94.97289
3131	126.697
3132	160.0417
3133	169.9715
3134	140.4653
3135	90.4667
3136	93.71259
3137	69.96074
3138	84.75288
3139	104.6719
3140	110.1533
3141	103.3988
3142	93.64201
3143	107.5145
3144	109.7947
3145	112.996
3146	109.6189
3147	106.9347
3148	108.7999
3149	110.8364
3150	124.6434
3151	152.8439
3152	153.4691
3153	155.0302
3154	151.2156
3155	127.4531
3156	99.15705
3157	88.5967
3158	103.2832
3159	97.7178
3160	119.2051
3161	131.2099
3162	109.1556
3163	84.57551
3164	83.87969
3165	105.5581
3166	125.3027
3167	141.1416
3168	133.9269
3169	101.0393
3170	67.27335
3171	60.52268
3172	75.38585
3173	93.57385
3174	108.9477
3175	128.2964
3176	139.2943
3177	145.1173
3178	160.5676
3179	169.3676
3180	143.1759
3181	137.3424
3182	148.8372
3183	175.7825
3184	198.4198
3185	198.3538
3186	176.4577
3187	143.7389
3188	120.2038
3189	98.6197
3190	107.232
3191	125.1875
3192	130.7765
3193	134.6071
3194	151.2187
3195	153.468
3196	105.5992
3197	89.46316
3198	70.94408
3199	71.58452
3200	89.5415
