RamanShift	Intensity
190	3340.871
191	3305.532
192	3262.267
193	3222.465
194	3174.526
195	3130.931
196	3090.55
197	3059.652
198	3036.331
199	3007.948
200	2985.53
201	2956.292
202	2926.143
203	2883.207
204	2828.088
205	2772.135
206	2715.38
207	2667.085
208	2604.467
209	2547.585
210	2500.281
211	2471.419
212	2459.186
213	2442.008
214	2427.967
215	2399.469
216	2359.753
217	2309.329
218	2248.783
219	2195.823
220	2150.035
221	2123.789
222	2090.932
223	2061.278
224	2029.047
225	1993.946
226	1963.383
227	1930.46
228	1903.526
229	1867.97
230	1831.194
231	1785.355
232	1731.093
233	1684.365
234	1642.903
235	1617.607
236	1585.312
237	1553.09
238	1512.459
239	1462.151
240	1415.762
241	1367.033
242	1335.033
243	1307.11
244	1293.014
245	1280.885
246	1267.117
247	1249.335
248	1215.16
249	1179.103
250	1148.393
251	1127.714
252	1097.238
253	1053.589
254	1011.872
255	972.4344
256	947.524
257	923.9125
258	911.1693
259	901.6885
260	894.4121
261	885.3282
262	865.8219
263	844.5046
264	826.8653
265	811.501
266	780.2876
267	733.17
268	686.925
269	652.0548
270	625.2773
271	582.6031
272	541.0886
273	502.1784
274	474.2908
275	447.4635
276	412.8893
277	387.6207
278	368.1692
279	364.1186
280	363.263
281	365.3786
282	360.2681
283	341.5853
284	318.0139
285	294.3569
286	275.7801
287	257.5027
288	243.5761
289	226.2537
290	203.0846
291	189.4509
292	192.6556
293	208.0882
294	217.9254
295	220.0501
296	212.133
297	193.6795
298	174.3907
299	164.0051
300	159.5651
301	152.3504
302	146.9191
303	143.1378
304	141.4518
305	137.4234
306	129.0379
307	115.5523
308	92.10483
309	70.26344
310	58.6492
311	61.49725
312	63.77106
313	58.89892
314	55.33139
315	56.90023
316	61.43094
317	65.93649
318	67.63313
319	61.0273
320	45.67453
321	33.50799
322	32.65912
323	42.94784
324	62.59955
325	84.88284
326	96.99857
327	94.25007
328	87.0763
329	81.92477
330	73.55178
331	59.86685
332	46.82816
333	35.29361
334	31.05397
335	34.89372
336	47.30862
337	65.98
338	87.50161
339	104.1039
340	109.2523
341	106.2824
342	116.4496
343	140.2222
344	165.6643
345	185.5146
346	199.4259
347	214.1466
348	219.7964
349	221.5401
350	216.847
351	211.3806
352	207.3943
353	203.4388
354	198.2792
355	198.0201
356	208.2894
357	222.7897
358	226.8073
359	219.6068
360	219.2506
361	233.542
362	243.2138
363	234.4708
364	215.776
365	200.0545
366	189.406
367	182.1447
368	179.8836
369	175.3051
370	163.5576
371	150.5848
372	135.212
373	126.7426
374	129.3188
375	143.6887
376	159.4475
377	170.8003
378	169.8473
379	150.0691
380	125.7024
381	116.8386
382	119.7831
383	117.3225
384	110.6814
385	104.1921
386	99.53784
387	99.73978
388	102.6662
389	116.1805
390	149.8656
391	187.9046
392	204.6955
393	191.8723
394	178.0804
395	177.4068
396	177.6039
397	173.0816
398	165.9197
399	151.9438
400	139.9555
401	142.8165
402	164.4151
403	194.5271
404	225.5598
405	255.1494
406	288.9637
407	313.1293
408	332.2028
409	337.6703
410	339.1762
411	335.7851
412	324.9255
413	307.315
414	290.8334
415	280.4821
416	278.3739
417	275.6844
418	275.9238
419	278.8377
420	284.4735
421	291.7754
422	299.6553
423	306.3988
424	314.5977
425	317.8195
426	315.6658
427	306.5509
428	293.9266
429	280.0843
430	260.8173
431	236.4149
432	216.0501
433	201.0149
434	199.4461
435	204.4558
436	219.2614
437	238.4541
438	257.1156
439	272.4083
440	280.3608
441	280.6779
442	280.6297
443	274.5952
444	262.5023
445	249.1122
446	243.0175
447	247.2849
448	255.0329
449	262.2819
450	267.3839
451	266.0924
452	264.1772
453	272.2462
454	284.2454
455	287.9425
456	283.469
457	286.7115
458	303.0041
459	321.6125
460	335.8692
461	344.411
462	354.9992
463	356.888
464	344.9356
465	322.8666
466	310.4495
467	315.0481
468	322.9611
469	323.8688
470	329.1492
471	342.8292
472	366.1898
473	404.6038
474	445.5659
475	476.6713
476	487.1488
477	486.9623
478	480.4502
479	474.8348
480	483.6404
481	498.1091
482	510.1711
483	518.2424
484	523.7861
485	526.6073
486	537.696
487	558.6915
488	573.2352
489	572.2098
490	560.3605
491	549.9783
492	537.091
493	520.3488
494	504.0753
495	486.3112
496	471.1004
497	458.8092
498	450.766
499	442.5398
500	424.5768
501	411.13
502	406.709
503	416.5891
504	437.8593
505	464.5361
506	479.9679
507	476.09
508	466.8419
509	462.4363
510	456.7253
511	450.5451
512	439.9276
513	417.3077
514	391.2615
515	368.0779
516	357.5392
517	366.3071
518	395.6191
519	421.1058
520	423.3427
521	412.9612
522	406.2974
523	397.6768
524	386.3849
525	378.3103
526	379.6895
527	391.9195
528	404.5168
529	411.5612
530	423.102
531	445.3501
532	468.1214
533	490.4452
534	503.9868
535	516.2681
536	519.2861
537	514.4022
538	501.1143
539	487.8597
540	479.4257
541	470.1584
542	455.7854
543	442.094
544	425.1719
545	415.8241
546	416.3856
547	426.8442
548	435.6479
549	438.1767
550	431.8717
551	415.2391
552	391.3481
553	363.4455
554	336.3997
555	308.0533
556	284.5311
557	251.8169
558	223.3583
559	204.2272
560	200.2094
561	193.8623
562	181.9764
563	175.8821
564	179.351
565	185.6764
566	184.3338
567	182.7528
568	189.5259
569	198.3239
570	200.2388
571	193.0107
572	179.7947
573	162.8269
574	145.7762
575	131.8412
576	119.3699
577	103.9495
578	91.57056
579	75.61818
580	68.73179
581	77.10282
582	98.85613
583	116.8011
584	125.4182
585	130.781
586	133.1399
587	136.3646
588	145.3276
589	152.4571
590	155.9326
591	151.4797
592	138.8837
593	121.7157
594	107.829
595	101.0627
596	96.7857
597	95.74769
598	94.57613
599	91.246
600	87.27129
601	82.02221
602	79.94604
603	84.38318
604	91.10614
605	91.47406
606	87.79595
607	85.78608
608	88.08593
609	101.2782
610	124.3342
611	134.5176
612	120.9695
613	104.2734
614	101.8995
615	106.1948
616	108.8909
617	113.5721
618	121.421
619	128.4107
620	128.4241
621	122.1857
622	123.9432
623	134.9124
624	133.7836
625	111.2546
626	87.10339
627	77.94952
628	75.89404
629	66.3904
630	61.62187
631	64.74997
632	76.41711
633	91.21102
634	105.8813
635	121.1342
636	133.1686
637	139.5986
638	139.2385
639	137.7019
640	142.6682
641	140.1261
642	117.3247
643	92.97422
644	85.3131
645	94.06053
646	105.3263
647	117.0439
648	120.7531
649	114.707
650	110.4763
651	111.8305
652	115.0604
653	119.6243
654	114.4464
655	88.63984
656	65.09203
657	64.79095
658	79.23539
659	85.38648
660	86.57188
661	87.96323
662	90.18721
663	97.64239
664	109.877
665	120.0122
666	124.8184
667	130.8241
668	140.883
669	159.0302
670	191.5944
671	220.808
672	239.0434
673	241.1202
674	243.6654
675	240.0567
676	233.1619
677	222.9493
678	208.7846
679	193.5055
680	177.0227
681	162.7007
682	159.7446
683	173.7565
684	184.5394
685	172.9269
686	151.6954
687	133.0955
688	122.9022
689	122.2406
690	133.3052
691	148.1741
692	162.2597
693	166.7138
694	160.7057
695	167.3066
696	190.1729
697	194.3321
698	164.5709
699	127.2683
700	104.1962
701	95.50056
702	94.79424
703	105.87
704	117.6061
705	127.3005
706	126.9803
707	120.6965
708	126.5175
709	142.8121
710	155.5958
711	160.6914
712	167.5234
713	177.9663
714	190.5461
715	204.9734
716	215.0435
717	219.4365
718	214.9683
719	205.121
720	192.811
721	185.6775
722	182.7616
723	174.7651
724	168.2074
725	172.6145
726	184.9409
727	186.1677
728	173.8318
729	165.7845
730	168.0721
731	165.3225
732	151.1998
733	140.9053
734	144.4779
735	149.7069
736	140.0545
737	134.0708
738	151.5064
739	175.2421
740	181.534
741	174.0397
742	171.6355
743	172.7292
744	172.3884
745	171.1258
746	172.4098
747	176.75
748	180.6528
749	182.6251
750	193.4604
751	216.9978
752	241.6367
753	259.1302
754	271.0199
755	286.5715
756	298.4562
757	316.6834
758	325.1149
759	315.1453
760	294.0161
761	281.454
762	285.2862
763	307.9602
764	345.429
765	379.3646
766	401.759
767	443.0919
768	502.9309
769	560.8531
770	600.5298
771	628.5762
772	655.1706
773	672.4637
774	691.4686
775	704.6561
776	724.6159
777	733.3286
778	723.8997
779	702.8768
780	692.1793
781	688.0747
782	675.044
783	658.7604
784	649.5912
785	647.5821
786	635.2039
787	610.5897
788	577.3226
789	541.9091
790	503.3879
791	467.7806
792	442.3992
793	429.3682
794	427.5083
795	426.989
796	428.6386
797	425.2008
798	417.2817
799	404.6414
800	388.1646
801	367.3031
802	346.973
803	325.6329
804	310.7387
805	296.8521
806	290.9308
807	290.3382
808	297.5516
809	308.0832
810	321.406
811	342.9519
812	371.0969
813	407.2537
814	446.5652
815	482.2895
816	508.8669
817	523.7243
818	531.2758
819	527.138
820	518.8836
821	505.9238
822	494.4709
823	484.4197
824	468.329
825	461.8805
826	473.6955
827	500.5899
828	527.9397
829	552.0475
830	577.5482
831	596.5384
832	615.3798
833	627.6843
834	636.7892
835	644.276
836	668.1031
837	710.8605
838	765.1075
839	822.3597
840	886.8619
841	952.8405
842	1016.748
843	1076.951
844	1129.691
845	1182.357
846	1213.933
847	1230.548
848	1227.609
849	1227.612
850	1211.879
851	1180.958
852	1135.012
853	1073.255
854	1012.367
855	948.2906
856	897.5406
857	840.8361
858	798.55
859	761.5685
860	737.5682
861	698.829
862	657.5018
863	618.3381
864	592.9805
865	566.0678
866	544.3615
867	524.7318
868	511.5884
869	502.1269
870	496.4398
871	492.7316
872	488.8334
873	474.6056
874	445.3705
875	410.8571
876	379.4533
877	356.0308
878	343.7063
879	338.5491
880	329.2137
881	323.116
882	318.0311
883	315.9936
884	314.2224
885	312.8087
886	306.9214
887	303.159
888	305.2495
889	314.1233
890	328.5268
891	341.861
892	346.5701
893	344.4645
894	348.9128
895	359.2413
896	375.1261
897	394.1244
898	414.9133
899	432.227
900	451.5373
901	464.9285
902	469.8094
903	461.1027
904	440.1008
905	410.8221
906	382.9594
907	364.4344
908	346.4161
909	330.1459
910	313.7521
911	297.8939
912	277.4509
913	252.5216
914	229.336
915	212.388
916	203.219
917	201.1661
918	205.9472
919	213.3208
920	220.271
921	222.8402
922	218.8731
923	208.7525
924	193.4586
925	176.1653
926	159.6283
927	143.6919
928	132.3773
929	120.3902
930	118.681
931	127.9364
932	145.4299
933	162.4318
934	174.1852
935	179.2903
936	177.327
937	182.2883
938	181.1659
939	164.5421
940	134.8672
941	94.38747
942	59.46363
943	40.19671
944	41.92729
945	38.92118
946	39.75856
947	45.72017
948	58.29469
949	78.87798
950	99.29666
951	113.3576
952	114.7105
953	108.801
954	97.1403
955	90.27651
956	90.86472
957	92.2666
958	96.90974
959	110.3502
960	130.0339
961	150.7077
962	167.6674
963	186.462
964	201.1624
965	205.1208
966	195.3819
967	182.5992
968	171.0058
969	163.2479
970	162.1649
971	162.95
972	163.7735
973	159.0884
974	148.2028
975	135.984
976	126.2421
977	117.575
978	111.1654
979	104.5733
980	99.14888
981	101.5512
982	114.0027
983	132.8481
984	153.7001
985	167.5758
986	168.5764
987	165.2393
988	160.9969
989	147.0907
990	124.3488
991	102.3674
992	89.356
993	80.25957
994	74.41422
995	75.90378
996	85.13523
997	105.4954
998	134.3686
999	165.3529
1000	190.1681
1001	201.6643
1002	195.3458
1003	178.9125
1004	161.0353
1005	135.2313
1006	103.9351
1007	73.86156
1008	51.19446
1009	34.36341
1010	22.70714
1011	20.77735
1012	27.87264
1013	46.86457
1014	74.065
1015	92.04977
1016	89.92594
1017	87.99504
1018	97.00103
1019	101.7322
1020	96.67102
1021	87.75333
1022	79.20065
1023	77.82093
1024	87.41982
1025	102.1143
1026	116.5723
1027	132.3106
1028	146.6161
1029	159.4109
1030	169.3438
1031	169.5335
1032	158.5124
1033	147.7392
1034	145.6781
1035	153.3877
1036	170.7299
1037	188.6969
1038	200.0467
1039	217.8587
1040	243.3833
1041	262.5378
1042	267.518
1043	272.5182
1044	282.3622
1045	294.3545
1046	308.0262
1047	330.944
1048	360.4802
1049	391.3338
1050	414.8759
1051	421.9594
1052	409.217
1053	393.3742
1054	382.8284
1055	372.2954
1056	365.9985
1057	370.4571
1058	386.4076
1059	403.5343
1060	416.5476
1061	433.5722
1062	450.4211
1063	459.8392
1064	458.112
1065	456.2234
1066	452.9374
1067	440.9674
1068	422.1494
1069	400.228
1070	382.3158
1071	365.8771
1072	359.3214
1073	361.6325
1074	376.834
1075	402.1479
1076	430.7381
1077	456.7607
1078	473.3611
1079	493.6936
1080	507.2725
1081	511.6956
1082	504.8597
1083	498.4827
1084	493.2614
1085	493.5639
1086	493.949
1087	485.6511
1088	465.8678
1089	427.2445
1090	393.2448
1091	383.5505
1092	395.0063
1093	399.8615
1094	400.7687
1095	392.6678
1096	379.5274
1097	366.8404
1098	355.9571
1099	345.3275
1100	337.1755
1101	326.0377
1102	326.236
1103	344.638
1104	366.0257
1105	375.4629
1106	377.9038
1107	378.3965
1108	368.9634
1109	349.0047
1110	336.2453
1111	341.8111
1112	351.7654
1113	357.4913
1114	356.2036
1115	345.9567
1116	335.2885
1117	329.3871
1118	326.5074
1119	326.9026
1120	325.602
1121	322.3882
1122	324.8327
1123	332.1317
1124	334.8428
1125	329.1974
1126	313.1042
1127	292.6552
1128	284.3797
1129	291.6667
1130	302.5264
1131	315.0183
1132	325.4264
1133	330.3051
1134	334.784
1135	334.4054
1136	331.8983
1137	321.9976
1138	300.827
1139	276.3163
1140	256.9274
1141	244.9641
1142	232.8536
1143	224.698
1144	213.3145
1145	209.3275
1146	216.1029
1147	222.1256
1148	216.5135
1149	200.4619
1150	177.0878
1151	153.7006
1152	138.5799
1153	125.9716
1154	115.6775
1155	111.8981
1156	115.4702
1157	118.2307
1158	116.6817
1159	112.0541
1160	104.4541
1161	92.00008
1162	78.7172
1163	69.14503
1164	66.04587
1165	60.92673
1166	56.73948
1167	55.33902
1168	56.41143
1169	52.26063
1170	51.76003
1171	66.42708
1172	88.53394
1173	108.9938
1174	117.8237
1175	111.9973
1176	95.97079
1177	83.67684
1178	72.03947
1179	60.50157
1180	55.82998
1181	59.37465
1182	71.86526
1183	89.89791
1184	106.5176
1185	115.4213
1186	120.4689
1187	121.3147
1188	117.6851
1189	110.3491
1190	100.8298
1191	94.05772
1192	95.79431
1193	108.6449
1194	127.9509
1195	150.9306
1196	176.3793
1197	199.3526
1198	228.6267
1199	246.1892
1200	250.7663
1201	235.8022
1202	210.5942
1203	188.1135
1204	184.2306
1205	188.0912
1206	186.1142
1207	191.233
1208	206.5408
1209	231.3344
1210	261.0349
1211	292.0172
1212	314.8869
1213	318.7916
1214	302.486
1215	300.1866
1216	312.0609
1217	314.5864
1218	308.1712
1219	302.6127
1220	301.7701
1221	309.5639
1222	323.8866
1223	338.8376
1224	351.5938
1225	360.8029
1226	371.2278
1227	391.7322
1228	414.7672
1229	435.7054
1230	446.0286
1231	442.2962
1232	438.4983
1233	442.1753
1234	443.6628
1235	443.1407
1236	456.2564
1237	480.7053
1238	500.3069
1239	510.6332
1240	526.6283
1241	536.9669
1242	529.0987
1243	513.4455
1244	517.2383
1245	530.2334
1246	537.0419
1247	542.0627
1248	547.7551
1249	553.566
1250	560.2241
1251	565.6184
1252	568.6523
1253	570.2563
1254	573.2162
1255	595.6171
1256	634.2249
1257	661.6831
1258	661.5338
1259	632.9288
1260	586.2563
1261	560.0335
1262	546.7408
1263	508.173
1264	474.6781
1265	459.172
1266	464.119
1267	473.7199
1268	495.3824
1269	526.2687
1270	543.1945
1271	533.853
1272	527.6686
1273	533.9854
1274	533.9639
1275	528.0981
1276	535.5374
1277	552.2866
1278	554.9447
1279	555.3481
1280	590.817
1281	627.8997
1282	624.9617
1283	600.5704
1284	588.5501
1285	579.6814
1286	571.7009
1287	574.1381
1288	588.7169
1289	599.3042
1290	600.3004
1291	615.9092
1292	644.0948
1293	661.9362
1294	666.1495
1295	676.0881
1296	690.6166
1297	714.3244
1298	741.8795
1299	777.69
1300	800.0312
1301	799.5382
1302	785.1453
1303	772.1271
1304	747.074
1305	711.1025
1306	672.4222
1307	644.5169
1308	627.5358
1309	628.2813
1310	636.5037
1311	646.2676
1312	638.4417
1313	621.0334
1314	614.5767
1315	602.9062
1316	567.8284
1317	537.0516
1318	529.7247
1319	522.7916
1320	504.3576
1321	490.1363
1322	486.6831
1323	487.1936
1324	490.3635
1325	490.6635
1326	486.7848
1327	476.5158
1328	469.3325
1329	478.0407
1330	492.9049
1331	499.521
1332	501.4087
1333	500.8737
1334	499.5
1335	498.9537
1336	492.5598
1337	482.1977
1338	479.1757
1339	486.3526
1340	497.4219
1341	509.4067
1342	520.0695
1343	524.3656
1344	521.5242
1345	518.7617
1346	526.1864
1347	535.4561
1348	541.6183
1349	540.0583
1350	529.4354
1351	515.0234
1352	500.914
1353	486.4559
1354	475.7595
1355	462.524
1356	455.997
1357	460.1331
1358	464.0188
1359	452.8225
1360	440.4407
1361	436.2414
1362	439.3684
1363	449.6567
1364	467.7981
1365	484.2129
1366	481.3956
1367	458.5106
1368	437.3162
1369	413.7941
1370	373.5906
1371	345.3287
1372	344.0021
1373	361.1264
1374	382.9163
1375	409.033
1376	428.9432
1377	425.9985
1378	402.1097
1379	397.249
1380	400.3166
1381	373.7316
1382	339.2498
1383	320.8141
1384	317.2084
1385	320.1941
1386	326.5945
1387	330.7074
1388	342.7369
1389	361.4443
1390	379.2563
1391	388.4932
1392	388.1643
1393	380.8078
1394	383.7574
1395	384.312
1396	372.2567
1397	352.6064
1398	330.852
1399	325.262
1400	341.5064
1401	345.7931
1402	338.1576
1403	348.7381
1404	369.1278
1405	379.7523
1406	380.6703
1407	377.844
1408	378.421
1409	390.7507
1410	407.5397
1411	423.7646
1412	439.0836
1413	449.7106
1414	458.4236
1415	462.1209
1416	465.325
1417	465.5096
1418	463.9412
1419	465.2399
1420	473.4086
1421	482.7523
1422	490.2139
1423	509.2
1424	536.3566
1425	556.6622
1426	576.2785
1427	630.7615
1428	692.4557
1429	732.9643
1430	765.4746
1431	808.3317
1432	844.9528
1433	869.433
1434	887.7097
1435	895.6057
1436	899.378
1437	897.2054
1438	896.0099
1439	896.9255
1440	903.1157
1441	910.561
1442	915.4143
1443	921.1211
1444	924.9641
1445	909.1346
1446	879.9135
1447	869.7837
1448	874.8031
1449	865.0964
1450	862.6442
1451	881.4275
1452	899.485
1453	903.363
1454	926.8705
1455	966.7383
1456	977.0501
1457	954.9205
1458	941.7435
1459	926.3954
1460	898.2183
1461	860.8865
1462	818.8988
1463	751.3228
1464	667.0639
1465	600.546
1466	569.3648
1467	524.8138
1468	490.3837
1469	464.2716
1470	458.6587
1471	462.6412
1472	466.7562
1473	458.8941
1474	437.6511
1475	407.7887
1476	382.2335
1477	366.9142
1478	351.5246
1479	335.2139
1480	305.5863
1481	277.6642
1482	261.0233
1483	245.048
1484	228.6199
1485	210.1028
1486	193.2706
1487	172.0192
1488	157.2016
1489	150.9121
1490	143.9715
1491	125.8427
1492	114.7488
1493	117.9546
1494	127.6412
1495	134.4048
1496	117.1599
1497	88.01294
1498	70.48564
1499	64.97215
1500	68.58694
1501	79.29572
1502	91.91041
1503	106.1222
1504	117.3365
1505	129.2453
1506	133.7581
1507	129.8048
1508	120.2524
1509	112.6964
1510	107.0617
1511	104.2097
1512	94.81334
1513	83.95402
1514	85.57234
1515	94.52915
1516	94.06945
1517	103.4773
1518	132.8482
1519	155.2557
1520	157.9538
1521	151.6385
1522	137.7227
1523	123.0592
1524	114.2935
1525	118.5293
1526	114.4894
1527	87.9918
1528	69.4301
1529	68.08939
1530	59.03384
1531	48.57705
1532	45.19656
1533	54.91328
1534	76.07576
1535	104.1786
1536	129.6803
1537	140.3595
1538	131.4942
1539	122.0229
1540	114.4789
1541	110.6356
1542	113.6687
1543	121.7546
1544	139.7243
1545	163.1672
1546	173.5068
1547	169.1105
1548	175.8931
1549	183.4086
1550	180.7625
1551	178.3817
1552	183.7976
1553	189.312
1554	192.0162
1555	197.208
1556	194.2834
1557	165.7648
1558	134.5896
1559	125.6376
1560	122.7172
1561	119.3144
1562	129.4901
1563	151.15
1564	169.5065
1565	178.5777
1566	180.5388
1567	174.2665
1568	165.1199
1569	148.6467
1570	130.2311
1571	115.5049
1572	115.5681
1573	136.1756
1574	152.6628
1575	137.3454
1576	118.2927
1577	110.2575
1578	100.3799
1579	93.64915
1580	90.98637
1581	101.556
1582	126.8644
1583	165.8471
1584	209.8387
1585	235.1209
1586	232.1869
1587	232.6202
1588	222.8313
1589	191.8151
1590	159.0394
1591	142.512
1592	140.0276
1593	152.0194
1594	163.4416
1595	178.0752
1596	207.7524
1597	233.9841
1598	244.3796
1599	241.0818
1600	226.8049
1601	211.8666
1602	200.2327
1603	189.3743
1604	180.0057
1605	167.7933
1606	165.9743
1607	176.4979
1608	178.4489
1609	170.7983
1610	163.8808
1611	158.9058
1612	157.0118
1613	159.9035
1614	166.8657
1615	175.9508
1616	183.95
1617	189.1284
1618	193.0493
1619	201.495
1620	211.2567
1621	217.8767
1622	203.754
1623	170.5745
1624	136.3077
1625	111.127
1626	94.81394
1627	87.99022
1628	87.12803
1629	89.86006
1630	99.22695
1631	125.3564
1632	150.3712
1633	156.3744
1634	152.9686
1635	149.8102
1636	159.317
1637	180.5446
1638	202.9432
1639	220.0748
1640	231.6254
1641	233.3365
1642	226.1454
1643	210.7167
1644	190.8068
1645	167.3465
1646	149.3751
1647	140.6186
1648	136.3986
1649	135.1057
1650	148.6347
1651	168.3634
1652	168.3257
1653	162.5496
1654	169.7964
1655	176.884
1656	179.2199
1657	183.3981
1658	187.3875
1659	188.6948
1660	192.0616
1661	202.2212
1662	200.9963
1663	187.8077
1664	189.4149
1665	198.1308
1666	192.9294
1667	182.7487
1668	175.0885
1669	168.4679
1670	166.983
1671	177.8793
1672	185.3931
1673	166.4509
1674	150.225
1675	154.0551
1676	157.434
1677	156.4639
1678	150.2925
1679	139.6294
1680	126.5601
1681	126.4161
1682	141.93
1683	144.8237
1684	143.2249
1685	166.8402
1686	191.8758
1687	199.5629
1688	204.0409
1689	205.5748
1690	200.018
1691	189.3698
1692	179.9854
1693	173.4857
1694	171.6533
1695	175.627
1696	181.2029
1697	173.7278
1698	170.3985
1699	187.7647
1700	208.4226
1701	221.5948
1702	228.8624
1703	230.8793
1704	240.2549
1705	249.7939
1706	255.2357
1707	250.9962
1708	239.3479
1709	236.5426
1710	232.2488
1711	212.7345
1712	199.671
1713	202.9252
1714	208.0613
1715	218.5528
1716	243.351
1717	261.4177
1718	257.6027
1719	249.1703
1720	239.6732
1721	223.952
1722	212.4842
1723	214.0101
1724	218.5873
1725	219.3816
1726	218.1284
1727	209.4555
1728	186.6593
1729	162.8895
1730	151.1089
1731	148.3619
1732	157.1323
1733	173.6149
1734	192.4661
1735	207.4155
1736	207.7696
1737	193.3369
1738	188.088
1739	186.4119
1740	170.4331
1741	163.4367
1742	175.4778
1743	185.6736
1744	186.0609
1745	176.5675
1746	160.304
1747	145.7529
1748	137.3858
1749	138.1365
1750	139.6886
1751	142.6749
1752	145.4974
1753	143.8948
1754	136.4542
1755	126.5497
1756	118.3015
1757	116.5783
1758	104.8597
1759	77.05276
1760	68.21512
1761	78.104
1762	72.34892
1763	64.50746
1764	64.48532
1765	77.26473
1766	101.5022
1767	132.1725
1768	150.9662
1769	145.0742
1770	146.5655
1771	164.7232
1772	165.78
1773	149.8094
1774	127.6367
1775	119.7322
1776	135.2257
1777	143.9016
1778	139.9245
1779	126.7208
1780	116.3656
1781	117.0108
1782	97.2667
1783	65.54894
1784	49.44677
1785	56.18312
1786	79.49327
1787	107.2033
1788	130.6106
1789	157.9529
1790	181.1142
1791	200.9089
1792	200.8093
1793	181.9594
1794	175.709
1795	166.177
1796	129.5259
1797	100.3136
1798	94.34855
1799	89.44935
1800	95.45631
1801	118.4945
1802	133.575
1803	128.7099
1804	134.6665
1805	142.2196
1806	134.584
1807	117.5866
1808	98.72205
1809	82.13964
1810	74.65865
1811	74.63865
1812	78.17915
1813	78.63631
1814	80.76918
1815	86.06127
1816	99.24547
1817	102.9574
1818	90.27775
1819	103.3618
1820	136.6826
1821	150.9559
1822	159.2469
1823	173.4207
1824	174.7456
1825	163.7455
1826	160.6602
1827	156.0721
1828	144.7121
1829	143.5935
1830	152.4219
1831	152.8893
1832	151.3111
1833	152.7526
1834	147.4078
1835	139.2589
1836	144.5847
1837	149.1124
1838	140.0569
1839	134.7787
1840	134.7309
1841	128.3215
1842	120.4249
1843	114.533
1844	100.6643
1845	84.84999
1846	80.24666
1847	84.95896
1848	91.75367
1849	113.049
1850	138.2609
1851	146.0871
1852	139.6896
1853	130.4213
1854	122.5043
1855	123.0304
1856	137.5238
1857	152.0539
1858	152.6575
1859	148.9202
1860	143.5975
1861	142.011
1862	139.491
1863	133.6299
1864	132.1531
1865	134.1585
1866	134.1399
1867	124.0965
1868	104.4915
1869	102.4994
1870	118.4273
1871	134.9914
1872	153.0578
1873	164.9877
1874	156.5322
1875	136.0256
1876	127.8011
1877	114.5122
1878	96.19055
1879	95.79078
1880	109.4113
1881	118.9945
1882	134.2024
1883	150.7155
1884	152.3742
1885	152.4888
1886	171.0527
1887	187.3654
1888	191.6656
1889	189.1612
1890	177.8099
1891	162.9751
1892	142.6916
1893	124.4046
1894	115.149
1895	109.2381
1896	99.58029
1897	102.2914
1898	110.7667
1899	102.9006
1900	98.73248
1901	107.4194
1902	110.7756
1903	113.1104
1904	125.031
1905	132.1552
1906	129.3784
1907	128.3423
1908	125.1889
1909	117.1214
1910	131.8492
1911	164.7806
1912	178.8723
1913	178.9093
1914	176.0947
1915	166.8768
1916	153.8719
1917	140.6612
1918	125.0095
1919	109.0538
1920	105.7524
1921	110.5073
1922	103.9109
1923	105.7816
1924	117.9842
1925	115.6237
1926	115.1571
1927	135.6057
1928	161.9111
1929	181.952
1930	197.3574
1931	197.7224
1932	184.8523
1933	174.3584
1934	156.8576
1935	107.7902
1936	69.8483
1937	70.70596
1938	94.42084
1939	127.6886
1940	142.1748
1941	153.828
1942	161.3808
1943	165.0866
1944	152.007
1945	122.6745
1946	95.44203
1947	86.69807
1948	98.87072
1949	114.5518
1950	120.3112
1951	136.3163
1952	147.3727
1953	139.7761
1954	124.6296
1955	108.4445
1956	88.80132
1957	78.94496
1958	85.38589
1959	97.23246
1960	114.8707
1961	142.2989
1962	163.5166
1963	167.8896
1964	163.3506
1965	149.2935
1966	133.8869
1967	118.6765
1968	105.5141
1969	82.01186
1970	72.70351
1971	85.11664
1972	86.9411
1973	86.75661
1974	99.88785
1975	115.6641
1976	129.0911
1977	145.5517
1978	163.3329
1979	180.3546
1980	184.1896
1981	164.8761
1982	124.831
1983	94.63649
1984	90.62316
1985	86.10509
1986	89.01413
1987	98.47807
1988	122.6808
1989	144.2472
1990	139.1516
1991	121.3855
1992	106.9422
1993	108.6889
1994	117.9553
1995	119.1389
1996	116.8988
1997	113.1875
1998	112.2654
1999	111.2461
2000	109.8843
2001	113.3288
2002	120.0535
2003	126.2283
2004	119.2762
2005	102.7921
2006	93.31387
2007	97.77534
2008	112.0545
2009	104.9127
2010	93.80539
2011	102.0788
2012	104.7887
2013	95.97808
2014	78.63107
2015	65.58051
2016	67.74411
2017	93.37736
2018	107.2302
2019	76.53082
2020	68.04748
2021	83.86031
2022	85.67642
2023	87.77171
2024	94.48819
2025	104.0664
2026	116.3252
2027	128.0764
2028	110.197
2029	77.78908
2030	72.69983
2031	65.7545
2032	53.4436
2033	58.90373
2034	75.78071
2035	93.02261
2036	126.6006
2037	155.4548
2038	155.7473
2039	145.1707
2040	132.1627
2041	117.903
2042	100.1444
2043	80.80682
2044	62.92691
2045	65.35036
2046	96.23468
2047	116.3373
2048	116.7315
2049	119.5927
2050	132.9178
2051	156.0249
2052	169.259
2053	169.8429
2054	162.7108
2055	150.547
2056	129.1873
2057	92.01367
2058	61.34817
2059	50.43955
2060	44.80224
2061	62.02427
2062	97.08245
2063	127.1515
2064	144.47
2065	152.7932
2066	147.1542
2067	131.0592
2068	116.909
2069	106.0223
2070	101.1782
2071	99.68674
2072	97.10364
2073	88.79073
2074	78.56224
2075	68.20824
2076	57.69847
2077	50.03745
2078	54.98802
2079	82.89577
2080	101.2483
2081	93.60069
2082	75.2739
2083	62.01559
2084	68.17193
2085	79.18489
2086	99.29313
2087	129.1001
2088	161.5856
2089	181.6532
2090	185.9727
2091	166.6392
2092	136.5443
2093	124.2311
2094	116.0302
2095	102.3291
2096	102.0583
2097	110.0828
2098	113.4306
2099	116.4039
2100	116.8043
2101	113.273
2102	109.718
2103	104.3064
2104	85.08765
2105	74.29945
2106	80.99868
2107	80.47832
2108	85.96502
2109	103.6774
2110	111.775
2111	104.6442
2112	87.99144
2113	71.06386
2114	69.41821
2115	92.79311
2116	114.4808
2117	123.8486
2118	150.1477
2119	164.8876
2120	154.9367
2121	134.9806
2122	113.1884
2123	103.4526
2124	117.35
2125	140.3717
2126	142.4102
2127	149.4891
2128	160.1849
2129	163.6339
2130	164.2186
2131	159.6772
2132	138.1692
2133	119.3607
2134	114.4893
2135	102.5386
2136	97.65532
2137	105.0209
2138	93.14752
2139	77.50254
2140	81.44453
2141	80.24854
2142	78.00113
2143	87.91827
2144	104.1962
2145	116.0159
2146	115.4793
2147	91.84131
2148	58.63158
2149	53.32841
2150	55.38622
2151	50.51952
2152	62.37755
2153	82.63014
2154	97.68633
2155	99.31431
2156	92.4127
2157	91.99287
2158	104.9691
2159	118.338
2160	110.3864
2161	101.0964
2162	95.90142
2163	90.18179
2164	84.23212
2165	80.13868
2166	78.55572
2167	89.23275
2168	109.0862
2169	120.3394
2170	125.8531
2171	129.9227
2172	132.961
2173	132.6847
2174	129.1588
2175	121.1857
2176	115.2003
2177	116.8643
2178	116.7099
2179	112.6297
2180	105.0807
2181	108.8208
2182	123.7469
2183	138.3595
2184	157.4747
2185	176.2487
2186	192.0654
2187	191.5654
2188	172.7077
2189	142.7644
2190	123.8816
2191	125.6956
2192	121.8046
2193	121.7829
2194	127.7271
2195	135.6044
2196	142.7689
2197	145.1905
2198	132.7392
2199	121.3086
2200	127.558
2201	128.9281
2202	132.012
2203	143.987
2204	150.5555
2205	155.226
2206	167.2861
2207	162.7122
2208	147.9491
2209	145.704
2210	134.9077
2211	121.9725
2212	124.2166
2213	132.4997
2214	145.0164
2215	164.6142
2216	178.3537
2217	177.4857
2218	167.7091
2219	146.1438
2220	122.4921
2221	107.3722
2222	103.2602
2223	107.8054
2224	112.3038
2225	119.2102
2226	125.0358
2227	121.0999
2228	127.4835
2229	152.1511
2230	177.8869
2231	199.6418
2232	212.3258
2233	218.8067
2234	215.7099
2235	206.3426
2236	189.1551
2237	176.0057
2238	173.7871
2239	161.4346
2240	151.74
2241	152.1913
2242	140.8334
2243	135.0414
2244	145.9101
2245	144.7336
2246	144.6433
2247	157.1737
2248	158.1023
2249	155.5482
2250	160.4772
2251	155.1439
2252	153.4672
2253	167.1594
2254	164.3139
2255	155.7527
2256	157.5703
2257	148.1866
2258	138.849
2259	142.6642
2260	143.6349
2261	139.0803
2262	131.2457
2263	134.7464
2264	143.8699
2265	147.4013
2266	154.0703
2267	161.1308
2268	164.1249
2269	152.5128
2270	136.833
2271	133.6788
2272	138.7228
2273	153.2311
2274	173.0072
2275	204.6624
2276	221.1278
2277	204.4041
2278	189.1531
2279	184.7535
2280	192.4363
2281	189.0067
2282	182.8523
2283	186.2675
2284	207.3951
2285	219.9695
2286	203.3279
2287	185.7514
2288	169.2964
2289	155.8363
2290	137.646
2291	127.1603
2292	133.8816
2293	162.7554
2294	186.3227
2295	183.9209
2296	182.7664
2297	170.7454
2298	153.3776
2299	157.5855
2300	176.5206
2301	197.6226
2302	223.4349
2303	227.9851
2304	206.961
2305	190.0154
2306	169.9942
2307	158.94
2308	181.7564
2309	195.8535
2310	184.4332
2311	168.9933
2312	157.3293
2313	152.0765
2314	141.1313
2315	144.3505
2316	163.4124
2317	185.2593
2318	192.1343
2319	184.8154
2320	181.4408
2321	196.7616
2322	222.4738
2323	237.3235
2324	236.1742
2325	227.0551
2326	225.9279
2327	222.7626
2328	206.3704
2329	175.455
2330	168.0318
2331	155.1258
2332	116.5595
2333	85.18867
2334	78.43977
2335	98.75607
2336	126.7755
2337	149.1576
2338	162.3215
2339	198.5934
2340	211.2984
2341	197.323
2342	203.0626
2343	202.428
2344	200.6276
2345	217.5376
2346	236.2603
2347	242.6597
2348	230.8022
2349	219.025
2350	208.5994
2351	196.2896
2352	177.364
2353	168.2198
2354	177.5273
2355	178.8909
2356	176.2701
2357	173.7306
2358	171.5182
2359	168.6935
2360	169.1613
2361	184.1804
2362	190.1776
2363	181.1032
2364	173.6068
2365	174.7451
2366	183.0866
2367	188.5229
2368	196.2464
2369	213.546
2370	241.6646
2371	249.222
2372	241.4864
2373	234.735
2374	221.0562
2375	211.4827
2376	208.436
2377	187.29
2378	179.2274
2379	189.7508
2380	188.6289
2381	183.816
2382	179.3704
2383	178.2839
2384	185.3443
2385	189.5219
2386	177.7866
2387	171.8641
2388	166.1702
2389	152.6584
2390	130.1156
2391	124.2862
2392	145.3394
2393	166.867
2394	183.571
2395	190.4652
2396	194.6855
2397	190.9647
2398	175.783
2399	151.0355
2400	165.3571
2401	198.4252
2402	204.5836
2403	189.3748
2404	173.0048
2405	171.0474
2406	152.6738
2407	136.8121
2408	140.3894
2409	168.755
2410	193.9041
2411	193.8935
2412	167.1324
2413	136.0193
2414	104.0997
2415	74.95108
2416	71.11053
2417	88.97001
2418	113.0575
2419	145.556
2420	162.7616
2421	160.0334
2422	159.6994
2423	155.9845
2424	146.052
2425	129.2733
2426	128.7255
2427	137.835
2428	141.1582
2429	134.4153
2430	136.4763
2431	150.9356
2432	151.6199
2433	138.8756
2434	124.6592
2435	127.3175
2436	143.9051
2437	159.8213
2438	158.5378
2439	154.6517
2440	146.1137
2441	136.2892
2442	130.4538
2443	128.592
2444	139.8242
2445	175.6805
2446	188.5512
2447	185.4969
2448	193.4732
2449	187.4472
2450	170.1286
2451	152.575
2452	143.1816
2453	134.3246
2454	128.8323
2455	137.2409
2456	159.5033
2457	179.6337
2458	179.9668
2459	166.66
2460	145.7029
2461	130.3514
2462	121.8959
2463	135.0056
2464	157.1805
2465	159.3621
2466	157.5574
2467	157.6373
2468	161.4423
2469	151.4251
2470	150.3391
2471	165.1067
2472	174.8129
2473	152.2505
2474	120.4715
2475	125.8558
2476	144.0415
2477	158.8452
2478	160.5132
2479	174.5034
2480	169.7334
2481	141.3192
2482	111.8628
2483	92.20827
2484	87.51178
2485	91.50777
2486	101.996
2487	121.6055
2488	132.8153
2489	103.3969
2490	95.27513
2491	106.4756
2492	101.9609
2493	110.2688
2494	126.8281
2495	144.8818
2496	174.9538
2497	172.9792
2498	147.4431
2499	144.5231
2500	131.161
2501	116.6778
2502	115.6864
2503	131.9308
2504	154.3278
2505	170.8886
2506	180.8671
2507	200.8307
2508	201.455
2509	168.4603
2510	160.0854
2511	160.3731
2512	154.2542
2513	134.1874
2514	127.8479
2515	141.2924
2516	163.0056
2517	168.5355
2518	181.5632
2519	203.2168
2520	204.9359
2521	184.7201
2522	154.6278
2523	137.6102
2524	138.1925
2525	150.1948
2526	161.9036
2527	168.3978
2528	165.214
2529	152.838
2530	139.8865
2531	139.5157
2532	152.1256
2533	165.2916
2534	162.411
2535	140.1415
2536	122.9393
2537	130.2642
2538	123.9688
2539	118.9003
2540	118.0019
2541	112.9076
2542	113.482
2543	129.7088
2544	159.2146
2545	184.379
2546	189.4764
2547	172.3179
2548	147.2215
2549	138.7123
2550	136.8893
2551	129.1857
2552	126.8221
2553	111.577
2554	93.60258
2555	93.70182
2556	82.69974
2557	109.0358
2558	165.8801
2559	170.6
2560	159.1861
2561	147.8323
2562	146.1799
2563	143.803
2564	129.3399
2565	114.3028
2566	125.0872
2567	103.5725
2568	71.78245
2569	60.28976
2570	53.53872
2571	60.6421
2572	82.13478
2573	111.1887
2574	144.8546
2575	157.8182
2576	146.4562
2577	140.9702
2578	131.6628
2579	115.8927
2580	100.1297
2581	104.8879
2582	121.3228
2583	129.8309
2584	117.2829
2585	111.1582
2586	109.5617
2587	106.8389
2588	98.79185
2589	89.1685
2590	80.3562
2591	76.01215
2592	83.44593
2593	107.8231
2594	136.7393
2595	152.0876
2596	163.7669
2597	158.8073
2598	136.4789
2599	111.0739
2600	110.3654
2601	120.2904
2602	114.7384
2603	99.53917
2604	91.55198
2605	98.41432
2606	114.5503
2607	137.5951
2608	160.5659
2609	169.0748
2610	151.9066
2611	134.0125
2612	120.9018
2613	116.8546
2614	127.6003
2615	139.8019
2616	147.8729
2617	148.1784
2618	128.6988
2619	107.7832
2620	88.47689
2621	60.14235
2622	38.48688
2623	35.89592
2624	53.49408
2625	79.85348
2626	88.58759
2627	108.4035
2628	146.9812
2629	147.9397
2630	135.4378
2631	129.0006
2632	138.1583
2633	143.9505
2634	136.7486
2635	133.8895
2636	153.6649
2637	141.4078
2638	129.1899
2639	132.6164
2640	139.3783
2641	125.9829
2642	105.2157
2643	87.8319
2644	67.20776
2645	43.54594
2646	36.29442
2647	50.29335
2648	61.17516
2649	49.15851
2650	36.75504
2651	47.46194
2652	56.50856
2653	73.19126
2654	87.44389
2655	87.75616
2656	84.27724
2657	71.36231
2658	51.03984
2659	32.05954
2660	30.51434
2661	49.73715
2662	81.31805
2663	108.249
2664	115.9352
2665	109.5357
2666	96.66653
2667	79.07038
2668	60.44664
2669	59.47911
2670	79.9735
2671	104.3366
2672	91.76435
2673	77.5061
2674	87.05322
2675	96.23643
2676	89.72231
2677	82.2456
2678	85.11182
2679	84.96591
2680	64.38516
2681	71.10954
2682	123.9212
2683	161.5982
2684	177.9111
2685	163.1905
2686	127.6964
2687	94.65135
2688	69.70404
2689	71.63716
2690	98.97565
2691	120.6377
2692	136.5223
2693	129.6281
2694	103.4878
2695	94.81654
2696	102.1553
2697	117.76
2698	128.1509
2699	129.2652
2700	129.8203
2701	127.9333
2702	122.1654
2703	117.8827
2704	116.7517
2705	117.9431
2706	117.5066
2707	111.5218
2708	112.6594
2709	126.694
2710	144.0712
2711	141.6452
2712	137.4206
2713	124.9344
2714	105.1426
2715	94.58613
2716	88.07259
2717	81.45884
2718	77.62097
2719	89.08194
2720	94.29441
2721	100.4389
2722	121.9342
2723	163.4177
2724	194.4015
2725	191.9605
2726	174.3536
2727	184.4624
2728	157.6134
2729	130.2635
2730	134.9923
2731	164.1264
2732	174.9229
2733	186.0608
2734	204.1001
2735	214.0665
2736	189.8267
2737	172.3857
2738	174.6895
2739	176.9243
2740	162.8771
2741	168.6082
2742	172.0363
2743	142.2239
2744	108.3312
2745	90.10961
2746	84.45461
2747	85.96104
2748	110.0849
2749	132.2617
2750	136.0162
2751	126.5579
2752	129.595
2753	128.2789
2754	127.3333
2755	133.3077
2756	145.0096
2757	133.6394
2758	121.5415
2759	126.7476
2760	145.873
2761	155.0907
2762	168.9897
2763	176.9239
2764	168.6479
2765	165.3318
2766	161.2033
2767	171.1221
2768	195.0326
2769	203.9404
2770	196.883
2771	183.4901
2772	175.4303
2773	173.2647
2774	160.9113
2775	156.6778
2776	158.7334
2777	150.4047
2778	127.9793
2779	120.0823
2780	126.2315
2781	132.8168
2782	138.8506
2783	135.599
2784	133.0105
2785	132.0321
2786	117.7489
2787	92.5289
2788	80.08451
2789	88.71696
2790	106.8295
2791	127.1125
2792	152.9555
2793	174.0695
2794	176.9585
2795	158.4813
2796	135.1925
2797	116.5327
2798	105.8587
2799	102.9142
2800	125.2267
2801	155.2435
2802	178.2022
2803	187.622
2804	181.9164
2805	152.8733
2806	125.2724
2807	119.9937
2808	128.4574
2809	139.8153
2810	153.4301
2811	166.1983
2812	165.8785
2813	122.3118
2814	102.897
2815	100.5629
2816	99.3807
2817	129.0527
2818	167.3644
2819	176.0458
2820	142.1487
2821	95.11767
2822	75.09902
2823	73.23
2824	81.117
2825	99.85416
2826	141.693
2827	158.5393
2828	172.9725
2829	192.7851
2830	201.7298
2831	210.0047
2832	189.8712
2833	170.1861
2834	173.55
2835	171.946
2836	180.0096
2837	193.7906
2838	205.118
2839	211.5775
2840	226.5938
2841	227.9632
2842	224.3418
2843	228.3854
2844	239.261
2845	268.134
2846	296.4728
2847	326.6506
2848	358.3515
2849	356.7646
2850	341.2897
2851	327.7004
2852	319.6446
2853	306.2593
2854	293.0861
2855	281.7698
2856	282.1592
2857	288.4774
2858	276.6765
2859	276.8996
2860	276.382
2861	272.4552
2862	272.1122
2863	277.2513
2864	301.979
2865	319.7995
2866	332.812
2867	365.6075
2868	383.3098
2869	383.539
2870	375.0597
2871	372.0623
2872	380.4726
2873	392.1122
2874	405.735
2875	412.1899
2876	404.3094
2877	386.2615
2878	353.0824
2879	332.5441
2880	331.4505
2881	330.1805
2882	315.9532
2883	329.1344
2884	350.2661
2885	362.1397
2886	369.2797
2887	374.0613
2888	364.9606
2889	359.0079
2890	373.3923
2891	404.1115
2892	438.8881
2893	451.2459
2894	442.7356
2895	422.7586
2896	393.3963
2897	389.5084
2898	394.498
2899	404.0763
2900	407.4247
2901	381.4806
2902	360.2683
2903	334.908
2904	338.0575
2905	379.8813
2906	405.9098
2907	427.6685
2908	430.7459
2909	405.1517
2910	359.3723
2911	325.1228
2912	324.1796
2913	338.1245
2914	356.2855
2915	372.1418
2916	368.2003
2917	370.9012
2918	370.5687
2919	357.964
2920	340.1591
2921	339.245
2922	334.9825
2923	331.8391
2924	336.6684
2925	345.8028
2926	342.0951
2927	326.0249
2928	322.4739
2929	324.4358
2930	320.61
2931	328.9949
2932	312.5002
2933	313.8075
2934	339.0569
2935	367.8604
2936	387.947
2937	381.0644
2938	364.9159
2939	325.7999
2940	273.3088
2941	257.9761
2942	260.9333
2943	254.5697
2944	260.0136
2945	278.4475
2946	275.7067
2947	287.411
2948	293.6258
2949	284.4294
2950	248.8349
2951	205.7046
2952	231.7955
2953	234.9613
2954	253.3018
2955	286.6216
2956	293.0826
2957	273.5334
2958	226.4573
2959	205.1078
2960	207.7629
2961	203.2908
2962	192.8751
2963	177.3898
2964	172.0832
2965	152.598
2966	119.9566
2967	113.6759
2968	116.9327
2969	138.0431
2970	155.7977
2971	174.408
2972	200.5682
2973	187.4956
2974	181.4991
2975	163.9787
2976	154.4446
2977	162.7906
2978	151.404
2979	151.6021
2980	144.2799
2981	150.7884
2982	170.4648
2983	173.6081
2984	177.1081
2985	180.5752
2986	183.1275
2987	178.8436
2988	172.2272
2989	179.5583
2990	159.5977
2991	141.4731
2992	127.7191
2993	121.4211
2994	129.2023
2995	118.6937
2996	120.3259
2997	99.31307
2998	68.38905
2999	57.34855
3000	50.01418
3001	104.3519
3002	144.9924
3003	169.7502
3004	175.24
3005	143.2207
3006	117.2285
3007	97.40779
3008	101.6198
3009	105.3714
3010	106.0562
3011	139.2876
3012	126.9041
3013	119.3553
3014	123.9628
3015	124.2255
3016	104.3786
3017	75.47511
3018	83.88026
3019	80.1937
3020	71.22795
3021	67.92122
3022	57.22924
3023	44.6537
3024	31.3283
3025	28.10266
3026	46.56919
3027	77.86707
3028	95.38985
3029	95.20669
3030	92.53568
3031	85.08001
3032	70.33311
3033	60.66838
3034	73.02024
3035	78.88143
3036	98.56544
3037	117.6339
3038	126.4037
3039	122.6077
3040	105.3714
3041	103.3166
3042	93.06387
3043	96.16681
3044	99.76953
3045	95.46233
3046	128.9914
3047	142.3215
3048	141.4517
3049	122.9495
3050	114.4595
3051	126.7121
3052	111.9987
3053	105.6897
3054	116.76
3055	107.4647
3056	79.54238
3057	68.80219
3058	72.11683
3059	62.8042
3060	39.60786
3061	38.37077
3062	44.30677
3063	45.43992
3064	86.3177
3065	98.60242
3066	110.695
3067	124.3299
3068	131.4506
3069	120.1128
3070	93.7384
3071	93.88041
3072	89.47625
3073	102.1736
3074	125.3126
3075	132.0448
3076	111.4213
3077	76.38966
3078	48.82199
3079	38.78783
3080	37.19907
3081	44.50306
3082	60.67396
3083	57.31266
3084	68.47934
3085	82.57735
3086	92.3423
3087	90.07044
3088	74.31636
3089	53.81202
3090	32.29496
3091	75.17452
3092	113.6282
3093	137.4005
3094	165.1367
3095	173.1446
3096	146.3573
3097	115.7872
3098	127.2999
3099	133.7973
3100	126.2053
3101	132.1734
3102	122.4977
3103	99.77191
3104	94.46385
3105	106.9198
3106	103.9584
3107	90.45361
3108	105.105
3109	119.06
3110	107.2652
3111	116.1541
3112	123.7753
3113	105.2162
3114	84.46835
3115	97.98043
3116	114.049
3117	103.3008
3118	86.3759
3119	74.78892
3120	60.74862
3121	50.57146
3122	74.57876
3123	95.06403
3124	102.9472
3125	109.9826
3126	110.2753
3127	82.4641
3128	46.73077
3129	68.2766
3130	73.80005
3131	104.9158
3132	135.7864
3133	139.7902
3134	113.0068
3135	82.40694
3136	83.67598
3137	46.33327
3138	54.61907
3139	73.56828
3140	81.63623
3141	82.63101
3142	85.45966
3143	109.0659
3144	93.20495
3145	91.68655
3146	97.3449
3147	99.78832
3148	98.99965
3149	104.2907
3150	127.0727
3151	142.1185
3152	134.0755
3153	139.0496
3154	138.3821
3155	113.8266
3156	90.87919
3157	89.0633
3158	104.7765
3159	86.43704
3160	98.81062
3161	109.4582
3162	84.80525
3163	57.0319
3164	61.73029
3165	78.13673
3166	88.9333
3167	113.2001
3168	122.8953
3169	102.6655
3170	71.93414
3171	57.91432
3172	63.26313
3173	82.10056
3174	96.19804
3175	109.0382
3176	128.775
3177	144.0958
3178	150.2393
3179	161.5031
3180	147.1806
3181	126.6859
3182	124.1335
3183	146.2296
3184	173.3851
3185	182.9623
3186	172.9825
3187	156.3069
3188	137.7511
3189	113.4539
3190	103.517
3191	110.0564
3192	112.3025
3193	112.2438
3194	133.3986
3195	146.4698
3196	112.9633
3197	91.68692
3198	80.76531
3199	82.73573
3200	99.22225
