RamanShift	Intensity
190	3128.478
191	3091.001
192	3045.487
193	3004.147
194	2956.894
195	2917.622
196	2887.63
197	2872.608
198	2859.225
199	2824.779
200	2787.746
201	2750.245
202	2719.262
203	2676.702
204	2621.494
205	2566.296
206	2507.085
207	2460.612
208	2413.657
209	2381.864
210	2355.674
211	2334.734
212	2320.603
213	2298.782
214	2278.043
215	2251.938
216	2224.311
217	2189.594
218	2146.199
219	2102.192
220	2050.765
221	2008.541
222	1967.814
223	1938.027
224	1899.572
225	1846.714
226	1796.441
227	1743.968
228	1706.642
229	1670.672
230	1645.726
231	1614.804
232	1571.871
233	1534.487
234	1500.539
235	1481.822
236	1465.791
237	1455.253
238	1432.675
239	1391.379
240	1344.342
241	1292.376
242	1250.243
243	1211.257
244	1185.75
245	1157.635
246	1123.395
247	1091.528
248	1052.768
249	1024.484
250	1003.122
251	994.8143
252	982.4865
253	961.2913
254	937.7966
255	908.8387
256	885.2471
257	866.014
258	857.0385
259	848.8613
260	839.9323
261	829.2534
262	813.4186
263	793.6741
264	766.801
265	735.3818
266	695.2379
267	650.5805
268	606.1102
269	561.3868
270	525.6901
271	485.5645
272	455.7982
273	427.2641
274	405.5687
275	387.3639
276	367.406
277	353.8926
278	338.174
279	331.0201
280	332.4696
281	342.5687
282	346.4333
283	335.1245
284	315.3288
285	293.3746
286	271.0044
287	244.9984
288	219.9728
289	191.4077
290	159.1351
291	140.7578
292	143.0684
293	162.1031
294	172.6736
295	175.216
296	173.5935
297	167.8574
298	159.5745
299	152.2243
300	145.4148
301	137.3939
302	131.2941
303	126.8727
304	125.7515
305	129.4129
306	138.7293
307	144.8266
308	135.1169
309	119.4641
310	116.6364
311	126.3965
312	129.8935
313	119.2496
314	100.1322
315	76.81905
316	54.21585
317	36.64465
318	28.12938
319	15.68671
320	-0.2585084
321	-11.20715
322	-16.26068
323	-6.851895
324	20.57283
325	56.43447
326	80.65718
327	85.68768
328	82.90807
329	78.4664
330	70.66981
331	65.62651
332	61.81652
333	54.70908
334	48.82914
335	50.93626
336	63.23573
337	83.1928
338	106.7959
339	129.8827
340	149.4218
341	164.9648
342	193.3556
343	229.125
344	256.8507
345	267.8607
346	265.3418
347	266.7766
348	258.6465
349	240.624
350	214.7
351	185.2334
352	159.1883
353	140.7046
354	130.3309
355	135.0167
356	148.7304
357	168.325
358	177.2252
359	173.4468
360	175.911
361	192.4124
362	200.6141
363	184.3395
364	157.9862
365	143.6522
366	140.3615
367	134.3548
368	125.0951
369	113.0375
370	97.26961
371	84.72213
372	75.84245
373	75.19688
374	77.61379
375	83.96039
376	90.58562
377	95.0927
378	95.69149
379	90.84422
380	84.4701
381	83.29587
382	85.25372
383	84.70168
384	81.88905
385	79.48637
386	78.61683
387	78.35056
388	75.24697
389	77.58672
390	95.25613
391	118.7106
392	128.4493
393	120.1882
394	115.9219
395	125.6913
396	136.8779
397	141.6473
398	141.9968
399	142.4347
400	143.293
401	149.3452
402	160.3272
403	171.9296
404	181.232
405	188.4427
406	197.6352
407	204.4165
408	211.4781
409	215.2085
410	214.9476
411	210.1668
412	205.5983
413	204.7883
414	205.5578
415	206.2648
416	206.2206
417	202.0522
418	196.4736
419	196.4904
420	204.1944
421	215.0724
422	226.398
423	236.2553
424	247.6117
425	252.2697
426	250.0154
427	239.3456
428	226.5507
429	214.3894
430	196.2412
431	171.0592
432	149.5628
433	135.661
434	134.1122
435	134.2418
436	140.4689
437	152.3721
438	166.5459
439	172.7166
440	163.7014
441	151.3788
442	148.7434
443	149.304
444	143.4117
445	136.3796
446	134.9263
447	141.6174
448	155.6343
449	174.9557
450	190.5955
451	195.3404
452	190.0449
453	185.7321
454	179.0773
455	168.1457
456	157.5588
457	158.0996
458	174.3244
459	196.8028
460	217.3814
461	231.4487
462	242.3912
463	240.9499
464	228.6273
465	208.2575
466	195.3631
467	196.4884
468	199.9259
469	196.2611
470	200.7898
471	221.6437
472	253.8878
473	293.773
474	327.927
475	346.672
476	343.2064
477	338.7788
478	345.0038
479	355.1266
480	367.632
481	382.9069
482	405.7024
483	426.8036
484	440.7765
485	443.7077
486	449.0754
487	459.6068
488	465.3232
489	463.2324
490	452.3719
491	435.9776
492	416.7933
493	398.177
494	385.4899
495	373.3708
496	364.7257
497	358.1099
498	352.9744
499	348.3085
500	338.6255
501	333.0287
502	336.2876
503	347.0048
504	358.4993
505	366.4964
506	365.0857
507	352.2991
508	341.1074
509	341.493
510	342.1911
511	334.1622
512	320.3188
513	301.0484
514	282.2549
515	265.2956
516	258.1546
517	268.5399
518	297.4619
519	320.3486
520	317.4497
521	306.4323
522	312.5321
523	318.7808
524	308.5642
525	288.9566
526	276.8418
527	278.2018
528	284.9532
529	294.4179
530	317.718
531	361.1594
532	402.5569
533	429.4366
534	438.9997
535	457.8266
536	473.1309
537	478.3454
538	470.1425
539	459.4246
540	451.4041
541	441.3623
542	426.9733
543	414.9144
544	405.5387
545	402.1863
546	398.5315
547	397.1757
548	397.4286
549	397.636
550	389.5953
551	370.6941
552	344.7075
553	314.3956
554	284.0233
555	248.7851
556	218.5862
557	180.91
558	151.5267
559	134.4915
560	135.8701
561	136.0281
562	130.0925
563	132.315
564	147.973
565	165.8821
566	173.7083
567	178.6004
568	195.0548
569	212.7832
570	224.6422
571	225.5093
572	218.6634
573	204.5306
574	187.1107
575	170.2123
576	155.4813
577	142.9807
578	134.2007
579	119.6193
580	109.5241
581	107.6162
582	115.0258
583	122.3612
584	126.6894
585	124.5358
586	114.6758
587	110.1531
588	119.3384
589	133.3799
590	144.787
591	149.993
592	147.6562
593	138.5841
594	132.4201
595	130.3162
596	130.0997
597	131.3284
598	128.4973
599	119.2047
600	111.3036
601	110.1614
602	112.2396
603	112.0076
604	110.7349
605	106.2249
606	101.7678
607	102.4601
608	109.2
609	119.1187
610	129.5442
611	132.7209
612	124.7987
613	116.0878
614	115.5636
615	119.9087
616	123.9917
617	131.1645
618	143.948
619	157.5915
620	167.1069
621	169.5276
622	172.4048
623	175.2781
624	169.5268
625	152.4111
626	137.7644
627	137.2917
628	143.3848
629	145.1259
630	145.2083
631	142.3487
632	138.4687
633	139.6717
634	143.4228
635	139.1326
636	124.557
637	105.45
638	85.86474
639	75.69368
640	81.76981
641	93.75448
642	93.5672
643	94.49401
644	107.4933
645	129.8691
646	163.0967
647	195.4492
648	211.9646
649	204.7653
650	188.7379
651	169.4031
652	150.4261
653	137.6835
654	118.8832
655	78.09973
656	45.23011
657	35.28371
658	46.72358
659	51.23411
660	56.55677
661	68.64547
662	85.60935
663	104.2496
664	121.2723
665	137.8587
666	152.8684
667	166.2604
668	178.604
669	192.9924
670	217.5634
671	237.4801
672	248.7027
673	248.8053
674	254.1258
675	255.8221
676	247.8735
677	229.6363
678	203.1138
679	174.5152
680	150.7926
681	138.7835
682	131.9258
683	125.309
684	119.1133
685	107.4604
686	96.55283
687	86.57866
688	82.6087
689	80.6751
690	85.73018
691	100.7336
692	119.7351
693	125.853
694	116.5059
695	115.9644
696	129.5874
697	129.9503
698	105.7993
699	79.50922
700	68.43549
701	69.09772
702	72.42865
703	82.38538
704	96.27232
705	105.815
706	97.9384
707	81.21588
708	84.16984
709	106.6468
710	126.2541
711	136.8093
712	150.9306
713	169.7677
714	186.2411
715	197.4618
716	199.7207
717	195.7017
718	182.832
719	165.4712
720	146.8078
721	130.6373
722	118.2485
723	98.03614
724	79.10418
725	66.05929
726	63.60981
727	60.29723
728	57.3142
729	61.95251
730	75.56513
731	87.58023
732	91.71047
733	96.19742
734	107.5118
735	116.7918
736	117.4781
737	118.1176
738	135.8143
739	153.2808
740	152.6908
741	139.2986
742	135.3902
743	138.869
744	137.3536
745	130.8287
746	124.5424
747	121.5989
748	127.0564
749	142.2866
750	164.5766
751	188.736
752	206.9329
753	213.5452
754	215.7649
755	230.5843
756	243.2613
757	251.3616
758	246.3411
759	223.6525
760	196.7424
761	186.9018
762	201.1649
763	230.0711
764	268.6886
765	308.7388
766	340.7376
767	384.347
768	435.4737
769	484.1712
770	520.5638
771	543.5739
772	559.4738
773	565.3314
774	572.9006
775	579.6341
776	596.5193
777	609.8619
778	609.7359
779	601.4572
780	603.4868
781	609.4007
782	608.7941
783	600.7681
784	591.1991
785	577.8774
786	547.5865
787	503.3954
788	455.1766
789	415.2161
790	379.5725
791	352.4787
792	340.5981
793	342.4587
794	352.2513
795	357.5838
796	360.4669
797	359.2454
798	354.6518
799	350.6001
800	345.7665
801	340.2039
802	332.7372
803	318.5247
804	303.1135
805	290.9561
806	286.2465
807	283.4593
808	284.9316
809	289.019
810	296.5357
811	310.4047
812	330.4662
813	363.1254
814	405.5873
815	442.3622
816	462.7756
817	474.4754
818	487.2855
819	493.2475
820	496.2522
821	493.7935
822	491.0009
823	486.4068
824	478.0182
825	476.5211
826	493.0975
827	519.4655
828	539.3863
829	552.3353
830	573.5188
831	592.1139
832	599.8651
833	592.6561
834	580.2019
835	569.7228
836	577.7303
837	610.7204
838	658.8051
839	713.5678
840	776.4321
841	839.8586
842	904.7145
843	970.2642
844	1030.025
845	1088.112
846	1129.063
847	1162.967
848	1178.836
849	1195.247
850	1189.668
851	1167.595
852	1123.011
853	1061.799
854	996.0557
855	922.6261
856	861.0765
857	796.7596
858	752.8142
859	716.4011
860	698.0646
861	671.3573
862	644.0661
863	610.9919
864	582.4005
865	558.3802
866	545.7362
867	530.5245
868	514.5989
869	506.6876
870	508.6385
871	503.3635
872	484.1349
873	460.8935
874	438.7802
875	413.4894
876	384.781
877	360.763
878	345.5953
879	336.2562
880	322.7094
881	318.4425
882	327.7907
883	336.8302
884	325.1574
885	309.869
886	310.2406
887	318.9494
888	323.0891
889	326.3976
890	331.0543
891	336.6374
892	344.9656
893	355.476
894	370.9062
895	387.3242
896	404.8492
897	418.4817
898	429.6723
899	435.2009
900	444.2121
901	451.4841
902	447.9529
903	433.027
904	419.7349
905	412.5934
906	406.4001
907	400.4687
908	387.105
909	365.2071
910	335.2548
911	301.8387
912	267.9991
913	239.5079
914	209.7598
915	178.0227
916	158.8315
917	157.6312
918	161.5264
919	157.7187
920	154.7516
921	154.1722
922	156.6664
923	162.5449
924	165.2715
925	159.4576
926	149.9439
927	142.4248
928	136.4205
929	130.6732
930	127.3756
931	123.1828
932	124.0577
933	131.137
934	143.6716
935	158.7378
936	169.8135
937	174.5666
938	170.6154
939	168.349
940	159.0394
941	133.4075
942	102.7849
943	81.2073
944	72.82076
945	60.30264
946	52.66108
947	49.32157
948	54.96323
949	68.09581
950	86.18871
951	105.7889
952	120.1417
953	126.4878
954	123.9588
955	127.8314
956	134.845
957	134.5413
958	127.98
959	126.7862
960	132.5777
961	141.1596
962	150.847
963	160.6198
964	167.4884
965	170.3845
966	168.1929
967	166.5295
968	165.5311
969	158.8801
970	148.2666
971	144.4265
972	149.5473
973	149.6728
974	140.9425
975	126.5721
976	109.3758
977	89.47267
978	70.80766
979	58.62729
980	57.12302
981	60.65524
982	67.31618
983	80.21081
984	98.10046
985	119.0824
986	137.443
987	143.185
988	130.9187
989	112.1188
990	95.29743
991	77.5434
992	62.29015
993	50.00187
994	42.52438
995	45.59914
996	60.79966
997	94.79171
998	144.0571
999	192.0522
1000	223.9299
1001	248.6814
1002	267.7568
1003	264.822
1004	237.7644
1005	202.12
1006	173.0039
1007	146.2118
1008	124.0791
1009	102.8226
1010	80.69834
1011	61.61797
1012	47.11663
1013	41.35559
1014	44.5591
1015	50.72689
1016	54.31124
1017	68.43513
1018	95.9763
1019	123.4385
1020	141.2397
1021	153.2661
1022	160.7328
1023	161.1516
1024	156.066
1025	149.1746
1026	144.8951
1027	150.6658
1028	168.8652
1029	185.727
1030	192.4009
1031	192.716
1032	188.4411
1033	184.3151
1034	184.9122
1035	194.8413
1036	214.7917
1037	234.0156
1038	244.9641
1039	264.3653
1040	294.8086
1041	321.2925
1042	333.7114
1043	339.3014
1044	340.3027
1045	344.33
1046	355.8647
1047	382.1656
1048	419.3852
1049	450.194
1050	463.512
1051	471.9766
1052	476.7521
1053	477.9265
1054	474.864
1055	461.7776
1056	442.9829
1057	437.133
1058	450.4744
1059	469.1825
1060	485.7291
1061	495.8558
1062	495.8591
1063	496.3603
1064	497.8723
1065	500.0958
1066	499.8425
1067	487.3871
1068	466.8018
1069	452.2568
1070	451.0038
1071	457.7674
1072	472.774
1073	488.6295
1074	504.0823
1075	525.5361
1076	546.2193
1077	565.515
1078	578.3503
1079	597.3055
1080	610.1
1081	606.428
1082	587.845
1083	571.2198
1084	558.9449
1085	550.3329
1086	543.4676
1087	526.0726
1088	500.9576
1089	461.4515
1090	431.0573
1091	425.4521
1092	436.8051
1093	430.9756
1094	417.1187
1095	397.4599
1096	380.8188
1097	371.0129
1098	371.23
1099	376.2156
1100	379.4221
1101	368.1802
1102	360.4772
1103	371.0869
1104	385.0028
1105	390.5374
1106	384.7596
1107	366.5945
1108	347.063
1109	336.0452
1110	335.1237
1111	344.3042
1112	354.0203
1113	356.678
1114	354.9154
1115	349.4212
1116	342.7425
1117	336.868
1118	325.8317
1119	311.5686
1120	306.6088
1121	315.1663
1122	324.2907
1123	330.7701
1124	339.065
1125	345.556
1126	342.3585
1127	333.402
1128	340.8835
1129	361.9098
1130	380.443
1131	390.5021
1132	395.4112
1133	390.5312
1134	380.7869
1135	368.1349
1136	359.6505
1137	354.2748
1138	342.3566
1139	334.2443
1140	338.4791
1141	344.3916
1142	337.1332
1143	318.6268
1144	290.2661
1145	264.036
1146	247.4917
1147	240.6044
1148	237.8594
1149	238.6756
1150	237.9989
1151	236.0473
1152	231.7537
1153	217.2429
1154	192.3816
1155	167.182
1156	151.0515
1157	140.8307
1158	138.9497
1159	138.4541
1160	139.5112
1161	147.1175
1162	157.6011
1163	159.8999
1164	151.6278
1165	141.4353
1166	129.529
1167	112.9483
1168	99.83534
1169	95.47468
1170	103.5861
1171	116.9402
1172	134.4433
1173	156.2554
1174	165.3696
1175	151.4819
1176	125.5658
1177	107.7413
1178	91.98463
1179	75.22591
1180	62.16291
1181	52.52977
1182	54.66679
1183	70.05381
1184	85.72787
1185	93.33748
1186	103.8956
1187	117.6171
1188	125.868
1189	126.0969
1190	131.057
1191	137.862
1192	132.0421
1193	119.1473
1194	121.4218
1195	137.0606
1196	149.4656
1197	163.7268
1198	194.4585
1199	221.8317
1200	230.7124
1201	223.2177
1202	217.9218
1203	213.9717
1204	217.388
1205	221.6721
1206	220.675
1207	222.4757
1208	230.6657
1209	245.8615
1210	266.0235
1211	287.813
1212	304.1917
1213	304.8184
1214	290.0773
1215	293.0591
1216	312.1444
1217	318.6917
1218	313.1821
1219	312.6049
1220	317.9222
1221	330.5333
1222	344.4128
1223	351.9572
1224	354.8008
1225	360.7852
1226	368.3013
1227	379.1692
1228	391.4668
1229	403.7999
1230	412.7787
1231	416.9706
1232	426.7735
1233	445.1652
1234	458.9952
1235	464.4545
1236	485.5348
1237	517.3295
1238	539.6854
1239	545.1171
1240	550.6048
1241	547.4729
1242	529.212
1243	507.3591
1244	502.4709
1245	510.3065
1246	515.7183
1247	523.0653
1248	531.4053
1249	536.5632
1250	535.7619
1251	540.0171
1252	554.7559
1253	565.3256
1254	567.8567
1255	584.985
1256	615.7401
1257	638.1467
1258	640.4737
1259	628.9189
1260	601.0464
1261	563.6782
1262	527.9575
1263	500.779
1264	489.7325
1265	477.0037
1266	478.3703
1267	492.1679
1268	514.0046
1269	536.0853
1270	548.5316
1271	545.3404
1272	538.6719
1273	533.5463
1274	525.501
1275	517.6699
1276	518.1523
1277	524.3333
1278	515.4582
1279	506.8721
1280	533.1029
1281	569.9222
1282	577.6828
1283	573.6777
1284	584.2888
1285	596.8564
1286	606.437
1287	619.6942
1288	638.3281
1289	649.8548
1290	651.5978
1291	672.2851
1292	710.1104
1293	737.8396
1294	751.639
1295	778.4928
1296	810.121
1297	848.033
1298	878.827
1299	908.6865
1300	920.494
1301	918.5758
1302	895.6877
1303	858.8593
1304	809.3516
1305	758.2543
1306	712.6906
1307	687.9482
1308	677.8799
1309	684.4272
1310	687.2584
1311	682.6703
1312	664.9821
1313	641.3873
1314	624.1049
1315	606.6417
1316	575.235
1317	551.1646
1318	545.8541
1319	538.8355
1320	518.7297
1321	497.175
1322	483.2036
1323	482.1869
1324	495.2783
1325	508.8117
1326	515.0677
1327	502.872
1328	486.4507
1329	496.5345
1330	510.5556
1331	503.2981
1332	487.8594
1333	474.5872
1334	474.3294
1335	491.0363
1336	497.9789
1337	486.662
1338	468.4561
1339	455.0903
1340	466.0663
1341	493.5907
1342	507.9878
1343	512.0614
1344	515.6772
1345	517.7794
1346	523.9906
1347	526.1993
1348	521.17
1349	508.1794
1350	490.9139
1351	476.8815
1352	472.7818
1353	475.6501
1354	484.3837
1355	492.5446
1356	492.5803
1357	479.1457
1358	456.5995
1359	433.9449
1360	415.5678
1361	406.1065
1362	403.4893
1363	408.6914
1364	435.963
1365	474.6775
1366	494.8615
1367	485.5898
1368	466.7218
1369	433.9749
1370	388.3551
1371	352.0501
1372	338.4438
1373	340.2828
1374	345.7632
1375	354.2283
1376	359.4167
1377	350.8218
1378	332.016
1379	330.295
1380	332.6121
1381	299.3016
1382	254.6948
1383	226.3606
1384	217.8506
1385	223.1803
1386	231.1593
1387	231.34
1388	241.5159
1389	264.0577
1390	296.2901
1391	324.4214
1392	333.5335
1393	323.3181
1394	320.0733
1395	314.9654
1396	306.6775
1397	292.162
1398	271.1598
1399	265.3459
1400	281.8824
1401	292.2315
1402	293.1242
1403	302.314
1404	313.1554
1405	317.1256
1406	313.711
1407	308.9526
1408	301.2239
1409	291.7138
1410	292.9572
1411	309.6674
1412	331.1778
1413	352.4854
1414	377.2762
1415	397.9784
1416	415.5447
1417	424.3556
1418	431.2774
1419	436.2832
1420	444.5708
1421	453.5347
1422	462.019
1423	474.1631
1424	490.9525
1425	519.2689
1426	559.1413
1427	616.4059
1428	682.6536
1429	754.1103
1430	834.4661
1431	930.3259
1432	1012.508
1433	1064.806
1434	1102.796
1435	1119.593
1436	1134.931
1437	1139.091
1438	1135.569
1439	1127.514
1440	1128.222
1441	1129.379
1442	1126.126
1443	1120.147
1444	1111.003
1445	1088.654
1446	1060.834
1447	1047.037
1448	1050.436
1449	1052.455
1450	1061.127
1451	1076.086
1452	1085.816
1453	1084.048
1454	1096.125
1455	1120.747
1456	1120.907
1457	1094.801
1458	1072.18
1459	1044.405
1460	999.4825
1461	946.485
1462	892.4294
1463	815.277
1464	724.243
1465	650.9501
1466	614.8012
1467	568.0898
1468	531.7876
1469	496.514
1470	476.1322
1471	461.4355
1472	447.8625
1473	428.5146
1474	399.9469
1475	368.3969
1476	342.5636
1477	329.5688
1478	318.4154
1479	305.8772
1480	276.6728
1481	247.4565
1482	229.7587
1483	211.2292
1484	191.2253
1485	171.2609
1486	153.6807
1487	124.4136
1488	102.4223
1489	99.13203
1490	97.13552
1491	78.00984
1492	59.83847
1493	51.49944
1494	53.34504
1495	62.04049
1496	60.92144
1497	48.54871
1498	25.23671
1499	9.238902
1500	15.07852
1501	31.97746
1502	51.03833
1503	70.39146
1504	83.2069
1505	93.00836
1506	98.71882
1507	113.1607
1508	115.4424
1509	95.44274
1510	72.08182
1511	58.55112
1512	49.99975
1513	48.28624
1514	44.31388
1515	43.09384
1516	43.12794
1517	59.02433
1518	95.69559
1519	124.3731
1520	130.1105
1521	126.48
1522	113.1863
1523	97.9374
1524	82.41828
1525	68.20668
1526	55.17074
1527	41.95724
1528	35.72564
1529	36.70555
1530	26.95262
1531	13.26272
1532	9.427556
1533	18.44867
1534	35.40558
1535	59.86391
1536	85.14601
1537	103.4451
1538	107.45
1539	104.6846
1540	96.63857
1541	93.55236
1542	94.35873
1543	97.20023
1544	111.4914
1545	134.5543
1546	138.5531
1547	124.0505
1548	125.8492
1549	131.1271
1550	119.3527
1551	115.6855
1552	134.1598
1553	148.8627
1554	152.2491
1555	167.7093
1556	179.0979
1557	159.4046
1558	132.8529
1559	130.9524
1560	122.8211
1561	100.1581
1562	96.30157
1563	115.6507
1564	134.1798
1565	148.3661
1566	158.2559
1567	157.5717
1568	147.7933
1569	129.7572
1570	108.2113
1571	79.17964
1572	58.73351
1573	55.28594
1574	66.45638
1575	76.08662
1576	90.34756
1577	105.1021
1578	112.7469
1579	111.7487
1580	114.524
1581	119.9642
1582	129.1814
1583	139.2289
1584	148.1357
1585	160.7948
1586	172.516
1587	178.6074
1588	172.5608
1589	154.9142
1590	136.0832
1591	127.6452
1592	127.3462
1593	134.7214
1594	140.8414
1595	147.1705
1596	161.3956
1597	169.0452
1598	161.565
1599	154.7047
1600	154.1021
1601	144.394
1602	131.7342
1603	129.7955
1604	130.8294
1605	123.2968
1606	123.5124
1607	134.283
1608	132.5282
1609	120.9476
1610	118.8192
1611	122.1239
1612	123.897
1613	131.3828
1614	143.4029
1615	140.13
1616	125.1861
1617	125.1707
1618	132.5786
1619	133.8236
1620	141.2382
1621	156.5841
1622	162.3631
1623	152.776
1624	134.7048
1625	112.8366
1626	93.31617
1627	81.52083
1628	79.96743
1629	80.94171
1630	87.16365
1631	111.022
1632	127.5848
1633	111.4925
1634	83.98805
1635	64.34229
1636	61.64436
1637	78.43133
1638	95.8259
1639	112.0125
1640	124.8985
1641	137.6485
1642	149.5794
1643	142.9899
1644	120.0805
1645	101.7165
1646	90.87917
1647	86.70667
1648	86.46167
1649	88.27156
1650	100.5338
1651	118.8806
1652	131.6476
1653	137.9107
1654	141.4417
1655	141.9006
1656	140.3102
1657	136.7596
1658	132.7428
1659	128.4104
1660	131.0658
1661	144.1185
1662	148.4101
1663	138.5721
1664	129.2126
1665	123.7432
1666	123.9038
1667	120.064
1668	106.102
1669	102.7617
1670	116.622
1671	141.1107
1672	159.7123
1673	155.2203
1674	143.5808
1675	138.8225
1676	137.7599
1677	139.2094
1678	135.3521
1679	129.6237
1680	125.1321
1681	131.9906
1682	150.225
1683	157.5556
1684	156.2124
1685	168.4562
1686	176.2896
1687	169.5007
1688	168.0004
1689	171.8418
1690	156.5677
1691	134.0454
1692	123.9227
1693	118.9307
1694	115.5249
1695	122.1081
1696	134.3288
1697	134.2691
1698	136.3474
1699	155.8838
1700	170.7383
1701	172.6829
1702	178.2789
1703	187.3872
1704	200.7213
1705	218.5556
1706	237.9287
1707	244.2505
1708	235.2467
1709	232.3806
1710	225.6859
1711	206.2115
1712	191.9985
1713	193.1548
1714	202.8959
1715	219.6504
1716	241.7793
1717	251.2436
1718	238.2253
1719	224.1663
1720	213.4005
1721	192.0271
1722	170.7589
1723	157.1512
1724	156.6439
1725	166.427
1726	164.1677
1727	153.7693
1728	150.8263
1729	150.8205
1730	151.0855
1731	160.1489
1732	175.4815
1733	189.7208
1734	195.5121
1735	191.8634
1736	175.536
1737	153.8786
1738	150.5676
1739	161.0271
1740	160.3065
1741	170.6459
1742	197.2887
1743	219.968
1744	219.7294
1745	187.2181
1746	142.7293
1747	117.4268
1748	102.0685
1749	101.2025
1750	113.461
1751	131.1348
1752	137.0476
1753	145.272
1754	156.5316
1755	146.8303
1756	126.1849
1757	125.4385
1758	120.3389
1759	98.92803
1760	86.81754
1761	83.91257
1762	62.8174
1763	48.00607
1764	56.17365
1765	74.43889
1766	97.1877
1767	130.1302
1768	155.9131
1769	162.6458
1770	165.9322
1771	170.5446
1772	160.7113
1773	143.302
1774	132.4755
1775	136.4371
1776	153.5
1777	151.3381
1778	132.6256
1779	122.4085
1780	111.9491
1781	96.58352
1782	67.87593
1783	40.82558
1784	37.40551
1785	57.43686
1786	85.43544
1787	111.8768
1788	131.4025
1789	165.9025
1790	192.9675
1791	198.6133
1792	194.5422
1793	188.6526
1794	192.0734
1795	190.2503
1796	164.1974
1797	146.3042
1798	149.062
1799	147.6371
1800	142.7221
1801	134.6719
1802	126.8849
1803	122.2502
1804	122.5199
1805	124.5971
1806	120.5383
1807	110.7525
1808	97.36127
1809	85.61333
1810	79.74728
1811	75.86037
1812	81.97129
1813	97.66763
1814	111.4928
1815	120.9844
1816	138.4034
1817	146.8826
1818	141.0088
1819	147.9068
1820	167.543
1821	183.8073
1822	199.4904
1823	216.4962
1824	220.1065
1825	209.5116
1826	203.8125
1827	196.0313
1828	183.4781
1829	173.514
1830	171.0863
1831	173.916
1832	180.089
1833	183.7583
1834	180.134
1835	174.2125
1836	185.8011
1837	194.6812
1838	184.0539
1839	178.6521
1840	179.3073
1841	168.7518
1842	152.2485
1843	135.8833
1844	116.9846
1845	105.128
1846	109.087
1847	123.081
1848	134.2788
1849	158.0212
1850	182.8492
1851	188.7119
1852	176.1511
1853	157.1806
1854	144.4493
1855	146.2177
1856	160.2245
1857	172.5731
1858	169.262
1859	168.0731
1860	172.1815
1861	182.2891
1862	189.0508
1863	185.8823
1864	174.2021
1865	159.6344
1866	152.9233
1867	142.2802
1868	124.3796
1869	127.3439
1870	149.4824
1871	171.4867
1872	187.5282
1873	188.8816
1874	167.2953
1875	138.1155
1876	129.4853
1877	121.0294
1878	108.9861
1879	114.8863
1880	133.8251
1881	148.4291
1882	165.4929
1883	182.2165
1884	195.0243
1885	201.7984
1886	208.0431
1887	204.3028
1888	190.0507
1889	171.7715
1890	152.7419
1891	136.7115
1892	126.8793
1893	127.9148
1894	138.6449
1895	143.0264
1896	130.4635
1897	137.1356
1898	153.4516
1899	146.6431
1900	141.013
1901	147.9943
1902	143.9997
1903	136.3651
1904	140.9871
1905	140.9586
1906	131.9224
1907	125.8777
1908	124.6154
1909	126.8152
1910	145.8242
1911	174.4293
1912	188.9538
1913	191.8832
1914	192.4906
1915	188.5432
1916	179.1638
1917	163.5389
1918	146.4388
1919	133.1979
1920	121.316
1921	113.57
1922	106.3081
1923	106.6406
1924	114.0698
1925	115.0465
1926	122.5537
1927	148.7216
1928	177.981
1929	196.0688
1930	205.7117
1931	197.6465
1932	177.8306
1933	165.811
1934	153.3006
1935	111.0741
1936	77.30283
1937	75.73327
1938	92.48455
1939	115.896
1940	121.6915
1941	126.0195
1942	132.87
1943	148.027
1944	153.0642
1945	138.1849
1946	121.9134
1947	114.7708
1948	120.3969
1949	130.1636
1950	136.2962
1951	146.291
1952	153.5119
1953	153.2602
1954	138.9765
1955	117.4339
1956	106.9459
1957	105.3861
1958	107.4098
1959	113.4208
1960	124.0545
1961	140.9408
1962	151.7769
1963	150.8616
1964	149.0962
1965	147.0238
1966	146.9171
1967	135.7169
1968	115.361
1969	94.64198
1970	86.55839
1971	93.15131
1972	83.11765
1973	74.64713
1974	93.60311
1975	105.3251
1976	103.1477
1977	111.9743
1978	133.1998
1979	162.2953
1980	176.3032
1981	163.5253
1982	130.8463
1983	109.904
1984	113.3203
1985	104.6602
1986	99.45519
1987	107.2186
1988	120.9176
1989	127.7214
1990	113.2879
1991	95.29428
1992	89.94923
1993	104.2687
1994	124.9436
1995	132.0455
1996	138.2643
1997	140.4933
1998	134.0285
1999	128.1656
2000	126.6152
2001	112.3492
2002	95.92692
2003	88.9687
2004	79.02542
2005	70.9929
2006	73.13062
2007	92.18377
2008	120.2133
2009	135.6879
2010	135.1943
2011	128.1931
2012	120.0868
2013	111.6827
2014	96.30814
2015	82.84164
2016	81.08978
2017	110.4477
2018	134.7833
2019	116.6913
2020	111.9915
2021	121.0926
2022	115.8217
2023	107.4366
2024	102.9994
2025	104.5581
2026	108.2076
2027	106.835
2028	90.92754
2029	71.6965
2030	70.65292
2031	70.90148
2032	69.78885
2033	84.2198
2034	102.0656
2035	110.6051
2036	121.0818
2037	125.5909
2038	117.7866
2039	106.2969
2040	99.60262
2041	102.9129
2042	106.8582
2043	102.9873
2044	92.09653
2045	94.35813
2046	127.6696
2047	140.0043
2048	126.8732
2049	124.4573
2050	134.9859
2051	154.756
2052	162.4772
2053	159.7956
2054	154.0406
2055	140.7292
2056	117.7663
2057	82.93789
2058	59.89299
2059	59.08593
2060	62.00254
2061	80.11091
2062	107.9123
2063	129.3842
2064	140.5777
2065	147.3663
2066	139.6552
2067	120.8707
2068	104.1755
2069	91.0788
2070	84.71452
2071	82.41927
2072	78.70471
2073	69.28395
2074	66.46117
2075	67.89232
2076	66.09109
2077	68.92821
2078	81.9183
2079	111.6938
2080	130.7146
2081	124.0261
2082	102.3421
2083	77.36277
2084	65.85225
2085	70.0233
2086	93.80226
2087	127.4726
2088	157.0863
2089	169.7098
2090	172.3533
2091	156.236
2092	130.6176
2093	116.0987
2094	100.7564
2095	80.61646
2096	86.02033
2097	102.0001
2098	102.3906
2099	112.4816
2100	124.55
2101	122.3265
2102	112.5728
2103	97.63718
2104	72.3365
2105	58.64125
2106	64.85281
2107	63.89613
2108	70.19353
2109	89.5353
2110	96.14779
2111	85.85996
2112	67.85093
2113	54.25377
2114	54.96904
2115	68.2663
2116	80.13029
2117	85.34087
2118	102.7799
2119	115.9621
2120	116.9936
2121	118.4857
2122	118.5444
2123	118.1834
2124	125.2736
2125	132.214
2126	127.3463
2127	119.3056
2128	110.7731
2129	99.54594
2130	97.51452
2131	104.1725
2132	101.1215
2133	91.94486
2134	83.36956
2135	89.32146
2136	99.2765
2137	98.40385
2138	81.44334
2139	59.15048
2140	49.03048
2141	50.90588
2142	61.34603
2143	67.31831
2144	83.19032
2145	99.19176
2146	94.07571
2147	72.75977
2148	51.16044
2149	49.759
2150	57.11724
2151	60.56803
2152	65.76325
2153	69.53497
2154	69.75966
2155	65.47237
2156	62.21076
2157	67.08313
2158	84.84859
2159	100.1883
2160	91.84911
2161	75.53372
2162	60.01944
2163	48.71981
2164	37.6233
2165	27.98406
2166	19.97866
2167	24.68244
2168	41.36708
2169	56.35175
2170	66.64317
2171	72.31976
2172	85.94267
2173	97.93443
2174	100.9238
2175	102.3646
2176	107.7028
2177	120.8991
2178	116.339
2179	95.35706
2180	74.64702
2181	64.5086
2182	67.00706
2183	69.43264
2184	79.81812
2185	94.49609
2186	106.3286
2187	106.8077
2188	95.0392
2189	77.73019
2190	73.97353
2191	87.9259
2192	90.70953
2193	94.84664
2194	102.9015
2195	93.49829
2196	84.3236
2197	89.67785
2198	85.85635
2199	87.74948
2200	106.189
2201	113.2976
2202	116.7283
2203	129.3163
2204	127.5807
2205	117.1282
2206	115.2294
2207	110.9875
2208	109.2321
2209	117.1586
2210	113.7964
2211	101.5532
2212	97.58555
2213	103.7269
2214	111.881
2215	104.363
2216	97.50335
2217	99.67768
2218	110.3779
2219	113.6386
2220	104.8607
2221	96.3681
2222	100.0773
2223	112.5086
2224	102.516
2225	101.0067
2226	121.1432
2227	143.4669
2228	168.9404
2229	190.9996
2230	205.3633
2231	203.7563
2232	189.6962
2233	173.1801
2234	163.7787
2235	165.0639
2236	160.9317
2237	158.6536
2238	159.7868
2239	146.796
2240	125.3085
2241	106.6977
2242	98.26916
2243	98.03002
2244	97.52854
2245	95.3951
2246	109.0538
2247	144.2926
2248	160.9279
2249	165.2785
2250	174.4203
2251	175.9266
2252	166.5001
2253	150.5579
2254	133.1358
2255	130.2183
2256	147.0571
2257	146.7838
2258	140.6765
2259	146.2806
2260	140.3918
2261	129.8456
2262	126.6679
2263	123.78
2264	124.5442
2265	130.9485
2266	146.7358
2267	161.7784
2268	164.0979
2269	150.2699
2270	136.5364
2271	142.7513
2272	148.9824
2273	159.1091
2274	176.9538
2275	211.8346
2276	234.2352
2277	220.9788
2278	205.8176
2279	195.6455
2280	194.552
2281	195.8119
2282	193.0235
2283	184.6115
2284	200.1929
2285	211.6386
2286	193.899
2287	176.2701
2288	158.2743
2289	141.6398
2290	128.6991
2291	128.364
2292	143.5211
2293	180.2878
2294	206.6015
2295	201.2906
2296	196.6577
2297	182.4959
2298	165.1242
2299	166.469
2300	187.2656
2301	214.4861
2302	235.0511
2303	240.1424
2304	229.8764
2305	216.8021
2306	199.6077
2307	190.528
2308	210.6055
2309	210.5277
2310	182.0032
2311	166.4152
2312	163.2472
2313	164.7321
2314	148.4399
2315	150.4615
2316	175.4337
2317	203.5452
2318	210.5357
2319	204.0412
2320	214.338
2321	221.7663
2322	224.0456
2323	224.0475
2324	215.2219
2325	209.1467
2326	217.5405
2327	220.6108
2328	206.9788
2329	177.3576
2330	165.7968
2331	152.205
2332	121.2543
2333	91.23241
2334	86.90904
2335	114.1325
2336	147.7162
2337	173.2537
2338	187.1101
2339	224.2154
2340	235.5172
2341	218.2236
2342	220.5503
2343	218.157
2344	213.7736
2345	221.8005
2346	234.4852
2347	240.3666
2348	230.9366
2349	228.3634
2350	233.7429
2351	238.9873
2352	235.1421
2353	229.6632
2354	230.2438
2355	223.1359
2356	212.0903
2357	202.3138
2358	192.8681
2359	191.116
2360	197.7837
2361	205.4352
2362	207.5165
2363	199.9734
2364	185.785
2365	183.0859
2366	191.8974
2367	196.9805
2368	208.363
2369	224.7848
2370	239.6769
2371	240.8789
2372	234.4559
2373	231.8234
2374	224.467
2375	218.3929
2376	214.4119
2377	195.6493
2378	192.2257
2379	208.1057
2380	211.4329
2381	206.9097
2382	199.1541
2383	195.2381
2384	197.7612
2385	197.7445
2386	185.6969
2387	193.9487
2388	206.4535
2389	201.8117
2390	184.6456
2391	180.6905
2392	199.5174
2393	205.8988
2394	205.5278
2395	203.4403
2396	206.249
2397	203.7957
2398	193.4606
2399	180.084
2400	198.1079
2401	228.5106
2402	235.0414
2403	232.6319
2404	222.9509
2405	209.2004
2406	176.9932
2407	149.9545
2408	147.1383
2409	163.4464
2410	194.8254
2411	222.2904
2412	227.3258
2413	221.1973
2414	196.4351
2415	157.7174
2416	134.7118
2417	135.9153
2418	155.3483
2419	185.3912
2420	202.5741
2421	201.7993
2422	208.3557
2423	207.0585
2424	188.3262
2425	152.6375
2426	148.2095
2427	161.4329
2428	164.7338
2429	166.717
2430	182.4882
2431	210.3511
2432	226.6784
2433	210.1386
2434	177.7472
2435	173.9784
2436	175.1959
2437	179.4389
2438	184.9978
2439	192.1279
2440	195.7546
2441	193.6075
2442	190.7057
2443	181.7085
2444	178.7676
2445	201.7821
2446	208.7011
2447	204.6933
2448	210.3766
2449	207.2682
2450	204.739
2451	204.1785
2452	180.2398
2453	164.1286
2454	167.8077
2455	176.9697
2456	192.6284
2457	208.2613
2458	216.9317
2459	222.3719
2460	203.8356
2461	168.5719
2462	158.7412
2463	164.5815
2464	173.6985
2465	172.8172
2466	179.1657
2467	192.2804
2468	203.1815
2469	196.7965
2470	201.7734
2471	222.0869
2472	220.7014
2473	189.0322
2474	153.4947
2475	153.764
2476	159.6891
2477	166.1951
2478	171.2352
2479	189.6696
2480	195.6908
2481	182.777
2482	168.957
2483	156.0483
2484	147.6528
2485	143.3897
2486	138.0746
2487	149.7444
2488	166.007
2489	139.1394
2490	139.7375
2491	159.3186
2492	152.4224
2493	150.9337
2494	147.1005
2495	144.8719
2496	179.4098
2497	179.536
2498	151.1741
2499	157.3845
2500	152.1387
2501	142.2554
2502	142.2755
2503	155.7696
2504	182.8892
2505	205.5256
2506	202.7116
2507	211.5153
2508	210.8611
2509	184.5743
2510	174.506
2511	182.7147
2512	196.5462
2513	193.1085
2514	190.1358
2515	196.0118
2516	207.0911
2517	187.6298
2518	168.7298
2519	170.2428
2520	180.624
2521	169.5015
2522	152.1457
2523	157.5657
2524	175.2295
2525	184.7588
2526	182.3603
2527	191.7
2528	201.875
2529	199.294
2530	182.0832
2531	185.8914
2532	193.5178
2533	192.9393
2534	187.741
2535	163.7827
2536	153.6965
2537	178.5892
2538	177.6439
2539	171.1208
2540	158.8757
2541	124.1974
2542	109.2247
2543	122.9041
2544	152.6881
2545	189.8124
2546	207.6844
2547	200.657
2548	188.3685
2549	172.8569
2550	159.9657
2551	153.39
2552	150.5272
2553	131.5026
2554	115.7538
2555	133.4036
2556	130.9831
2557	145.165
2558	176.9724
2559	169.0805
2560	158.2329
2561	153.8744
2562	156.555
2563	173.5068
2564	174.5171
2565	158.606
2566	155.9063
2567	125.2503
2568	96.98842
2569	95.86352
2570	83.34194
2571	89.59791
2572	115.5323
2573	142.6892
2574	172.757
2575	183.3611
2576	169.6623
2577	154.2105
2578	138.8194
2579	132.2823
2580	139.0163
2581	152.4274
2582	171.7172
2583	183.7088
2584	177.2279
2585	161.4548
2586	142.3777
2587	127.1736
2588	116.5165
2589	104.3591
2590	90.93564
2591	83.87243
2592	104.7911
2593	135.6301
2594	155.7092
2595	158.9805
2596	174.8761
2597	169.9315
2598	134.7097
2599	105.6147
2600	109.7807
2601	132.686
2602	142.3621
2603	139.11
2604	144.5079
2605	151.6899
2606	141.0392
2607	141.377
2608	155.7923
2609	170.5883
2610	164.5374
2611	162.5689
2612	160.6313
2613	154.521
2614	150.6958
2615	152.6931
2616	160.8381
2617	165.7654
2618	144.1557
2619	125.9969
2620	109.1262
2621	70.2531
2622	37.96037
2623	33.11016
2624	55.99232
2625	83.85481
2626	97.55965
2627	117.8773
2628	150.9549
2629	154.2225
2630	154.3254
2631	154.3532
2632	151.9893
2633	152.1336
2634	140.4108
2635	123.8365
2636	118.538
2637	109.0461
2638	117.1503
2639	142.0681
2640	160.9914
2641	163.6725
2642	156.0872
2643	141.5062
2644	111.4326
2645	86.60996
2646	76.46188
2647	82.47679
2648	100.5795
2649	84.41227
2650	61.14339
2651	69.80216
2652	91.56282
2653	120.5016
2654	134.8182
2655	124.1607
2656	119.0398
2657	106.9104
2658	81.57294
2659	50.84267
2660	53.09005
2661	85.31233
2662	123.1062
2663	139.9551
2664	154.2763
2665	163.5811
2666	155.5748
2667	118.9907
2668	92.00945
2669	94.02295
2670	114.228
2671	118.1285
2672	108.5416
2673	100.7622
2674	102.6754
2675	100.517
2676	94.04555
2677	94.85029
2678	103.0792
2679	98.83327
2680	91.63725
2681	111.8959
2682	164.3109
2683	204.3812
2684	227.0081
2685	215.7051
2686	174.3125
2687	128.1098
2688	98.68576
2689	94.5807
2690	105.4366
2691	114.2507
2692	130.8782
2693	134.3546
2694	117.3131
2695	113.7372
2696	130.7782
2697	152.5738
2698	157.9648
2699	149.1561
2700	149.9523
2701	156.5332
2702	157.7202
2703	155.911
2704	150.638
2705	145.2887
2706	137.8971
2707	115.2693
2708	108.4319
2709	124.1268
2710	148.0367
2711	157.1188
2712	155.4822
2713	150.8609
2714	145.9306
2715	127.9531
2716	119.7709
2717	116.6933
2718	115.7129
2719	127.7219
2720	121.7295
2721	121.0231
2722	141.5792
2723	166.1449
2724	190.6956
2725	197.3001
2726	194.3822
2727	208.6886
2728	185.2768
2729	157.9603
2730	160.3672
2731	188.5806
2732	199.8633
2733	206.7507
2734	217.6141
2735	224.3383
2736	194.43
2737	173.7317
2738	176.3101
2739	180.1037
2740	167.8243
2741	172.6012
2742	177.3749
2743	156.1022
2744	132.2701
2745	123.9234
2746	114.0919
2747	99.96873
2748	128.8103
2749	166.9033
2750	189.3197
2751	190.4533
2752	191.2827
2753	178.7909
2754	157.8218
2755	145.5786
2756	154.3479
2757	151.9802
2758	151.6679
2759	156.5408
2760	160.9212
2761	167.5213
2762	191.9124
2763	211.0251
2764	204.1392
2765	205.4548
2766	202.6929
2767	200.768
2768	200.5306
2769	191.3543
2770	189.4985
2771	182.5995
2772	171.8403
2773	175.5092
2774	176.658
2775	172.5217
2776	166.2157
2777	160.8264
2778	140.8685
2779	139.4939
2780	145.3526
2781	140.5027
2782	143.0881
2783	118.2254
2784	105.1793
2785	114.3965
2786	102.3662
2787	99.69302
2788	98.69983
2789	103.2331
2790	120.2602
2791	134.0301
2792	166.575
2793	207.7075
2794	229.6877
2795	216.5393
2796	180.6264
2797	137.5222
2798	102.2427
2799	83.96966
2800	109.2678
2801	160.4824
2802	195.1058
2803	188.6243
2804	178.8011
2805	155.2622
2806	129.7731
2807	119.6121
2808	132.4243
2809	144.5117
2810	149.7028
2811	151.2225
2812	149.4744
2813	112.3798
2814	105.4472
2815	110.1354
2816	104.5138
2817	129.2383
2818	180.7448
2819	196.6809
2820	156.8218
2821	108.2834
2822	96.06551
2823	99.98174
2824	105.5952
2825	119.1739
2826	165.525
2827	171.511
2828	176.2038
2829	191.4923
2830	194.347
2831	217.9179
2832	215.0672
2833	203.9971
2834	205.4021
2835	196.8477
2836	211.9401
2837	228.7772
2838	240.5285
2839	256.4167
2840	268.8339
2841	268.97
2842	267.438
2843	275.8609
2844	292.2211
2845	315.6125
2846	335.8248
2847	353.0583
2848	370.7528
2849	382.7126
2850	389.8549
2851	384.8751
2852	367.7108
2853	347.2774
2854	331.9486
2855	315.6985
2856	325.417
2857	359.3996
2858	362.4925
2859	356.134
2860	348.5886
2861	341.1176
2862	331.464
2863	329.4864
2864	346.7865
2865	354.6707
2866	355.5885
2867	380.3728
2868	403.8123
2869	405.847
2870	410.2858
2871	430.1024
2872	438.4132
2873	434.7637
2874	433.5764
2875	425.5638
2876	397.3182
2877	362.4902
2878	339.7067
2879	341.7448
2880	354.2531
2881	353.6356
2882	341.9968
2883	335.0611
2884	335.7166
2885	342.3957
2886	352.8301
2887	367.4745
2888	382.129
2889	394.1651
2890	404.164
2891	414.8634
2892	425.6222
2893	428.1766
2894	422.3313
2895	408.6406
2896	387.6353
2897	385.176
2898	388.9315
2899	388.3894
2900	378.9917
2901	363.3229
2902	356.1042
2903	330.8079
2904	317.9555
2905	344.4132
2906	369.8837
2907	380.0089
2908	370.9234
2909	349.9057
2910	324.1406
2911	295.9992
2912	303.0875
2913	323.5916
2914	342.2679
2915	349.5272
2916	329.8898
2917	325.3156
2918	318.6289
2919	307.3968
2920	301.4785
2921	302.1006
2922	314.8919
2923	313.3333
2924	304.3456
2925	305.0782
2926	297.8729
2927	271.1291
2928	258.2811
2929	266.0447
2930	275.7747
2931	276.1426
2932	272.9045
2933	278.205
2934	282.7248
2935	283.2674
2936	298.6775
2937	301.9627
2938	287.6287
2939	257.9778
2940	224.5924
2941	201.2108
2942	189.4407
2943	185.4134
2944	196.9256
2945	212.7976
2946	209.382
2947	218.5679
2948	214.2347
2949	193.7109
2950	156.8784
2951	122.3283
2952	150.0621
2953	162.8125
2954	181.1654
2955	206.9847
2956	211.5657
2957	184.6952
2958	134.5669
2959	119.5603
2960	133.5592
2961	136.7126
2962	128.1615
2963	119.9281
2964	107.2599
2965	74.70557
2966	39.85872
2967	38.5453
2968	31.87721
2969	41.27206
2970	54.3773
2971	73.77233
2972	104.2778
2973	111.3527
2974	121.5182
2975	106.6744
2976	86.80671
2977	79.57455
2978	55.26285
2979	47.29052
2980	54.21176
2981	75.46654
2982	97.73223
2983	103.3598
2984	96.6722
2985	83.39825
2986	68.73686
2987	59.40704
2988	62.31054
2989	77.53973
2990	70.85407
2991	68.39497
2992	69.14198
2993	71.52508
2994	79.50813
2995	65.29253
2996	50.12146
2997	27.25761
2998	8.102783
2999	3.809462
3000	1.665579
3001	45.71709
3002	79.67195
3003	85.36671
3004	75.04418
3005	65.69854
3006	60.27868
3007	59.11407
3008	70.87698
3009	81.33511
3010	84.70309
3011	97.46221
3012	92.43742
3013	91.32634
3014	93.97055
3015	93.06155
3016	80.74632
3017	56.7528
3018	62.35163
3019	60.85973
3020	66.03329
3021	77.45938
3022	68.1209
3023	57.49315
3024	49.15078
3025	51.71956
3026	76.17149
3027	118.3898
3028	148.4933
3029	130.4801
3030	112.3118
3031	96.18093
3032	81.4689
3033	79.42081
3034	100.7302
3035	110.8543
3036	114.2225
3037	119.4071
3038	129.0236
3039	134.3768
3040	127.5572
3041	123.5736
3042	123.8346
3043	137.8685
3044	145.3062
3045	144.723
3046	182.289
3047	181.6976
3048	165.8378
3049	140.2233
3050	133.7045
3051	152.119
3052	142.0056
3053	151.2545
3054	159.1198
3055	145.4064
3056	111.6832
3057	81.35457
3058	69.09372
3059	59.5087
3060	42.20843
3061	54.51857
3062	79.24078
3063	87.84895
3064	108.9662
3065	111.0424
3066	130.5861
3067	146.7413
3068	160.9247
3069	167.9384
3070	139.7991
3071	126.0892
3072	124.6191
3073	140.3467
3074	161.8368
3075	169.1035
3076	150.9773
3077	113.6357
3078	86.52286
3079	79.66779
3080	74.22766
3081	74.12009
3082	93.39249
3083	100.2885
3084	123.8288
3085	150.0247
3086	156.0938
3087	134.7414
3088	102.7017
3089	77.76685
3090	54.19811
3091	106.4863
3092	157.1727
3093	184.7796
3094	207.2752
3095	210.3495
3096	184.0389
3097	149.3219
3098	173.6755
3099	194.9396
3100	189.1816
3101	191.985
3102	184.204
3103	152.0969
3104	152.214
3105	175.0872
3106	166.5717
3107	129.9293
3108	123.7108
3109	129.7266
3110	129.4117
3111	160.8699
3112	182.2707
3113	156.8057
3114	117.5983
3115	117.8486
3116	126.4579
3117	122.401
3118	104.5052
3119	88.69089
3120	81.40879
3121	84.57659
3122	111.9681
3123	145.2901
3124	156.3326
3125	162.9863
3126	161.1462
3127	136.4018
3128	108.5429
3129	117.8641
3130	118.1487
3131	135.1586
3132	160.7984
3133	169.6344
3134	154.1285
3135	139.0548
3136	142.2358
3137	120.5969
3138	122.9175
3139	128.0496
3140	124.0966
3141	121.7789
3142	132.2484
3143	152.2109
3144	137.5935
3145	134.8854
3146	128.3631
3147	120.8443
3148	123.0267
3149	132.382
3150	148.414
3151	159.4187
3152	150.7192
3153	155.047
3154	161.3168
3155	146.0868
3156	122.4137
3157	121.1633
3158	145.9807
3159	145.8284
3160	167.1391
3161	176.8241
3162	147.4595
3163	110.7009
3164	100.8811
3165	110.5937
3166	128.8041
3167	148.1992
3168	161.3359
3169	151.4404
3170	124.9261
3171	110.6782
3172	104.8051
3173	104.3988
3174	115.8494
3175	134.3595
3176	153.4036
3177	170.5021
3178	179.5046
3179	168.0764
3180	139.6459
3181	139.8022
3182	149.8343
3183	171.1474
3184	193.9482
3185	196.1377
3186	169.3388
3187	134.1591
3188	120.8612
3189	106.7172
3190	108.2844
3191	121.0882
3192	130.7556
3193	134.1983
3194	142.1866
3195	150.5741
3196	112.0297
3197	95.12136
3198	75.33407
3199	75.67156
3200	103.4469
