RamanShift	Intensity
190	2520.024
191	2475.607
192	2438.26
193	2412.183
194	2368.313
195	2321.996
196	2285.007
197	2266.88
198	2254.42
199	2227.357
200	2198.368
201	2161.053
202	2122.44
203	2072.039
204	2012.724
205	1955.991
206	1898.245
207	1852.878
208	1798.096
209	1752.247
210	1714.892
211	1691.339
212	1680.606
213	1664.546
214	1649.792
215	1623.209
216	1586.831
217	1537.188
218	1473.319
219	1413.217
220	1354.531
221	1317.784
222	1284.378
223	1266.634
224	1253.6
225	1240.452
226	1232.002
227	1220.786
228	1209.846
229	1193.193
230	1171.981
231	1138.297
232	1091.577
233	1045.907
234	1002.921
235	975.1119
236	951.4449
237	935.5694
238	900.3654
239	834.4324
240	782.609
241	763.3023
242	786.2856
243	826.0966
244	878.4678
245	925.2145
246	951.687
247	952.7756
248	940.4911
249	905.075
250	869.8171
251	828.4305
252	745.051
253	615.5254
254	501.5951
255	433.5399
256	422.9566
257	414.2152
258	420.3103
259	419.5226
260	404.0372
261	387.1154
262	374.7192
263	365.988
264	358.4891
265	348.4197
266	317.5364
267	265.0572
268	212.7852
269	174.5603
270	151.0535
271	123.2249
272	102.1433
273	74.0982
274	43.46444
275	20.91172
276	10.57747
277	15.18223
278	21.87476
279	36.34258
280	57.50201
281	80.6441
282	97.07362
283	100.1002
284	92.68831
285	88.29136
286	77.56168
287	55.06649
288	23.76995
289	-7.57792
290	-33.3168
291	-45.38552
292	-44.82155
293	-29.9361
294	-19.36327
295	-11.22748
296	0.3681883
297	14.22775
298	27.08578
299	37.89358
300	43.19863
301	45.93122
302	44.31563
303	44.99443
304	48.0088
305	48.05143
306	43.21373
307	33.35096
308	15.9451
309	1.312364
310	1.587037
311	16.71602
312	25.03861
313	15.91446
314	1.896197
315	-6.911355
316	-11.4134
317	-11.53128
318	-8.650881
319	-14.14453
320	-29.71729
321	-41.51302
322	-41.67064
323	-28.71322
324	-2.198654
325	28.39899
326	45.20305
327	43.09821
328	41.44959
329	50.25294
330	59.2281
331	66.00191
332	66.72526
333	59.95796
334	48.41296
335	43.3824
336	49.81482
337	70.01957
338	105.9722
339	141.2063
340	156.8031
341	157.9723
342	179.7884
343	218.9283
344	246.1625
345	247.1629
346	231.2942
347	219.1439
348	201.2952
349	175.1124
350	148.2804
351	127.9588
352	120.6351
353	119.761
354	116.2391
355	119.7686
356	134.0918
357	151.0052
358	153.3915
359	140.2056
360	133.6357
361	143.9977
362	149.8367
363	133.3891
364	110.3979
365	98.80884
366	99.15394
367	101.9749
368	104.7718
369	96.20652
370	68.80416
371	38.3183
372	16.18957
373	6.317346
374	-1.329654
375	-2.256553
376	-1.636528
377	-1.106714
378	-2.854943
379	-10.86817
380	-18.06185
381	-18.02362
382	-12.46925
383	-9.32491
384	-8.619904
385	-5.693722
386	0.6351426
387	5.625381
388	4.48365
389	4.446933
390	18.68217
391	36.69855
392	40.06795
393	24.90502
394	10.08296
395	4.890219
396	2.825308
397	-1.069088
398	-4.794876
399	-13.40372
400	-21.93649
401	-25.26373
402	-19.89178
403	-5.312657
404	18.04989
405	42.04495
406	61.71651
407	74.60577
408	90.73015
409	103.0189
410	112.043
411	115.06
412	116.6002
413	120.2168
414	124.0771
415	131.242
416	137.2011
417	141.4843
418	140.9657
419	134.6629
420	122.6227
421	111.3427
422	105.3491
423	100.7101
424	89.53373
425	79.26902
426	72.35207
427	69.70029
428	63.56013
429	53.63628
430	39.3937
431	21.21539
432	7.135458
433	0.4065523
434	3.308777
435	7.122213
436	13.27359
437	19.58887
438	23.96996
439	25.47649
440	23.19382
441	18.85329
442	16.20554
443	12.63842
444	3.632428
445	-6.056355
446	-10.42386
447	-6.742387
448	1.983543
449	13.18278
450	25.24225
451	35.30117
452	42.41257
453	50.61032
454	57.45269
455	65.3056
456	73.70374
457	88.0057
458	109.2359
459	128.6012
460	141.5854
461	147.5065
462	158.0538
463	162.2385
464	155.7031
465	139.6568
466	127.5309
467	124.7643
468	122.9892
469	116.1098
470	116.5363
471	128.5335
472	152.6255
473	186.6311
474	221.6097
475	250.5289
476	264.6832
477	273.6436
478	280.8127
479	286.9056
480	300.8103
481	313.6285
482	323.4062
483	327.4105
484	330.3376
485	332.3946
486	341.4459
487	358.7919
488	373.045
489	378.5768
490	372.1391
491	356.1721
492	334.4592
493	318.128
494	309.6444
495	297.3705
496	283.3468
497	271.6688
498	264.7249
499	258.0462
500	243.3829
501	232.5609
502	229.1786
503	237.2676
504	252.6412
505	272.6686
506	290.0308
507	299.4941
508	308.0445
509	319.8313
510	325.1721
511	326.0269
512	311.9758
513	279.4833
514	237.6501
515	199.3854
516	177.7518
517	175.4371
518	194.5877
519	216.4102
520	222.5261
521	223.2624
522	231.0854
523	236.1784
524	233.5141
525	225.4148
526	221.497
527	224.4758
528	231.3867
529	240.7067
530	256.29
531	278.6978
532	305.2212
533	342.1137
534	372.3665
535	394.928
536	400.6301
537	401.0226
538	394.9384
539	387.6172
540	382.6942
541	375.6221
542	365.2455
543	350.5862
544	323.3878
545	300.4514
546	294.0617
547	303.1021
548	303.929
549	293.1404
550	272.9992
551	246.0126
552	219.0268
553	196.3385
554	178.9099
555	158.0807
556	137.3253
557	99.40282
558	61.1363
559	38.98481
560	41.31081
561	48.47589
562	54.6231
563	60.66107
564	63.42176
565	65.5978
566	71.0922
567	75.24248
568	77.46391
569	73.53565
570	61.27908
571	42.20687
572	22.14834
573	7.366804
574	3.763729
575	14.64198
576	25.72799
577	21.17122
578	12.25851
579	8.414977
580	11.10233
581	22.54649
582	39.46635
583	53.00081
584	58.26181
585	57.04608
586	49.88387
587	49.19265
588	64.78379
589	81.03224
590	86.02197
591	80.03954
592	68.57096
593	54.07892
594	44.00277
595	41.98204
596	45.40385
597	53.0598
598	54.28141
599	43.59051
600	32.64138
601	29.72026
602	31.4279
603	33.87806
604	35.25724
605	29.28658
606	19.31698
607	10.3696
608	7.997327
609	20.4659
610	48.52996
611	70.14523
612	73.35413
613	71.88279
614	77.84194
615	85.09357
616	94.09234
617	102.7969
618	113.8035
619	121.1937
620	119.7723
621	110.9656
622	112.4501
623	127.1103
624	135.1553
625	127.1827
626	116.5931
627	114.6862
628	114.3254
629	109.4807
630	102.968
631	96.01329
632	89.29424
633	79.32346
634	70.11658
635	65.82555
636	68.08123
637	66.45368
638	57.02298
639	54.97301
640	69.21286
641	87.33196
642	95.75616
643	101.282
644	117.4992
645	134.9747
646	150.0212
647	157.2594
648	160.6535
649	157.366
650	146.6595
651	129.5137
652	112.7785
653	101.869
654	87.55273
655	57.29221
656	34.06612
657	30.62549
658	40.63883
659	35.54462
660	27.10431
661	31.16857
662	49.12347
663	72.63938
664	97.1056
665	117.1729
666	128.5211
667	139.4579
668	155.5822
669	175.9796
670	207.8137
671	228.489
672	226.2477
673	207.5373
674	201.7417
675	204.5614
676	208.2657
677	210.2883
678	203.6331
679	187.6454
680	170.794
681	158.8793
682	152.9015
683	155.3054
684	150.1243
685	121.417
686	88.61329
687	66.27343
688	61.51762
689	65.53999
690	81.01657
691	99.12134
692	112.8231
693	111.523
694	95.35178
695	93.44403
696	113.2641
697	119.9107
698	97.62263
699	71.33567
700	59.50549
701	60.40868
702	70.70938
703	83.65801
704	86.70774
705	75.10461
706	43.00269
707	6.260707
708	-4.369712
709	16.91145
710	41.07202
711	60.85132
712	82.92908
713	104.8301
714	131.7883
715	166.7589
716	189.4674
717	192.5802
718	175.4723
719	152.9362
720	125.5486
721	100.8963
722	83.10258
723	61.91789
724	45.9308
725	31.50341
726	24.32041
727	18.15781
728	15.76304
729	22.63076
730	39.60232
731	56.69615
732	67.30563
733	73.45721
734	78.22752
735	76.14026
736	68.09965
737	57.19804
738	50.936
739	46.43472
740	34.76862
741	22.25863
742	14.6903
743	13.24689
744	7.382154
745	-1.372462
746	-7.62814
747	-8.585095
748	-3.643227
749	6.627044
750	18.93395
751	28.65536
752	41.08698
753	61.03694
754	77.58872
755	87.58218
756	89.81055
757	96.75301
758	97.59512
759	86.44687
760	70.54748
761	61.74531
762	67.25896
763	88.98367
764	123.8243
765	160.8755
766	190.904
767	228.7793
768	270.554
769	314.9127
770	356.5073
771	394.3165
772	433.3362
773	462.7738
774	489.6852
775	507.3599
776	533.9365
777	547.5862
778	543.4582
779	525.373
780	517.7661
781	513.9453
782	498.1391
783	475.7441
784	459.7779
785	451.228
786	429.2256
787	393.8618
788	351.181
789	310.4486
790	269.6722
791	234.6698
792	214.6635
793	211.41
794	214.2736
795	205.965
796	197.5051
797	193.2052
798	187.6297
799	172.4942
800	153.7083
801	135.4451
802	118.0119
803	92.51937
804	67.35
805	41.00611
806	23.28274
807	11.02172
808	11.06943
809	20.06494
810	37.88651
811	60.48896
812	83.44834
813	113.0801
814	146.8569
815	178.9486
816	204.9364
817	215.2125
818	208.6398
819	194.3904
820	188.5354
821	186.8939
822	189.5073
823	190.6622
824	175.4866
825	164.6317
826	180.453
827	216.2348
828	256.1692
829	290.1166
830	316.1962
831	325.631
832	334.2923
833	338.0755
834	340.4008
835	342.7044
836	350.8969
837	369.2986
838	408.3409
839	467.3835
840	544.0197
841	628.6997
842	716.4822
843	801.1416
844	875.9388
845	945.8376
846	995.8142
847	1043.319
848	1066.092
849	1080.341
850	1062.654
851	1023.249
852	961.7521
853	889.42
854	818.7205
855	735.0577
856	664.2704
857	591.4092
858	544.1577
859	510.2717
860	498.6606
861	472.3879
862	440.1308
863	405.0185
864	376.9976
865	348.4217
866	326.8454
867	304.7168
868	287.5542
869	282.8792
870	292.3933
871	297.6069
872	289.4408
873	271.7032
874	246.3913
875	210.9548
876	168.7279
877	133.2835
878	114.2566
879	107.5593
880	100.5639
881	100.3366
882	102.6188
883	103.1143
884	92.54128
885	80.44005
886	75.05929
887	78.19057
888	84.59241
889	96.86987
890	113.4293
891	129.7325
892	145.6649
893	156.1877
894	166.0217
895	172.7923
896	183.2234
897	195.658
898	210.3193
899	227.5411
900	260.4651
901	298.95
902	326.2596
903	333.0165
904	331.5654
905	323.2035
906	318.422
907	319.5272
908	312.9469
909	295.7487
910	271.276
911	244.1929
912	216.9663
913	194.7702
914	176.057
915	161.0809
916	147.7904
917	133.4149
918	125.9759
919	127.492
920	130.1759
921	126.1434
922	117.9707
923	106.6381
924	94.22084
925	82.8564
926	71.34212
927	54.41405
928	41.39732
929	34.01617
930	37.30206
931	46.92565
932	62.92145
933	79.91279
934	94.86178
935	109.5037
936	117.9096
937	127.3714
938	127.4191
939	116.9312
940	96.50271
941	72.47403
942	50.40466
943	29.58166
944	17.48017
945	4.951039
946	-1.215279
947	-6.629008
948	-4.617011
949	6.956943
950	27.07997
951	51.73643
952	74.36998
953	91.94522
954	100.2638
955	111.2161
956	120.9798
957	130.0001
958	137.4652
959	153.3813
960	173.1743
961	190.0175
962	199.2078
963	208.8273
964	215.7938
965	216.4604
966	209.1296
967	198.6706
968	187.3615
969	174.8596
970	165.5441
971	164.678
972	172.7308
973	174.4881
974	165.2081
975	150.6382
976	134.4843
977	117.3753
978	103.1107
979	94.69966
980	95.32843
981	104.5539
982	120.2639
983	135.5587
984	145.6785
985	156.9967
986	168.3967
987	166.7264
988	147.507
989	123.3834
990	104.0684
991	88.66337
992	80.69828
993	76.88713
994	75.59627
995	82.36617
996	97.75827
997	128.9057
998	173.6992
999	221.7311
1000	260.821
1001	288.1871
1002	299.3029
1003	291.1783
1004	268.193
1005	231.7764
1006	190.9968
1007	145.6095
1008	101.8875
1009	59.77501
1010	22.14896
1011	-2.149721
1012	-10.25816
1013	-5.381035
1014	5.714407
1015	18.28448
1016	25.43731
1017	40.61007
1018	67.22736
1019	82.20332
1020	74.2661
1021	65.83955
1022	69.66251
1023	76.16539
1024	81.9857
1025	92.70598
1026	108.8817
1027	124.858
1028	135.5742
1029	145.3378
1030	154.8857
1031	155.2629
1032	144.3404
1033	139.6209
1034	150.3741
1035	167.1134
1036	184.4447
1037	207.6479
1038	233.3734
1039	256.8758
1040	273.0835
1041	286.9863
1042	298.3675
1043	307.5053
1044	314.3394
1045	320.3552
1046	327.1412
1047	345.6381
1048	375.1871
1049	404.2865
1050	422.4969
1051	421.7419
1052	400.377
1053	379.5051
1054	368.8943
1055	352.0428
1056	332.231
1057	321.1191
1058	326.3563
1059	346.7824
1060	376.8212
1061	402.3964
1062	413.8333
1063	417.3329
1064	411.4221
1065	403.8358
1066	396.2723
1067	385.7227
1068	375.0566
1069	363.8171
1070	356.835
1071	354.5104
1072	359.5932
1073	367.9655
1074	379.8314
1075	394.8916
1076	411.2656
1077	432.8608
1078	456.8909
1079	493.1848
1080	526.3338
1081	543.3645
1082	538.8782
1083	534.1559
1084	526.4118
1085	522.1193
1086	517.3842
1087	503.9644
1088	485.9958
1089	462.3716
1090	448.8798
1091	456.4759
1092	473.9152
1093	473.7926
1094	462.4886
1095	448.3582
1096	435.9767
1097	430.9601
1098	429.5018
1099	421.2173
1100	413.7083
1101	408.7394
1102	412.1285
1103	426.0287
1104	440.0244
1105	444.53
1106	441.2053
1107	432.8909
1108	424.9659
1109	423.1611
1110	424.8336
1111	428.1738
1112	434.8771
1113	443.3987
1114	437.4938
1115	412.2285
1116	389.2615
1117	379.9004
1118	371.3904
1119	363.6372
1120	363.7777
1121	373.5154
1122	384.8256
1123	394.3605
1124	405.674
1125	413.0493
1126	406.6405
1127	388.5422
1128	381.5858
1129	383.1827
1130	371.648
1131	352.6463
1132	339.0285
1133	332.1024
1134	318.3951
1135	307.2322
1136	305.6443
1137	309.9635
1138	305.2291
1139	298.6532
1140	300.0107
1141	298.3578
1142	281.5177
1143	259.8284
1144	241.7329
1145	230.9352
1146	226.7411
1147	220.9754
1148	203.9708
1149	182.5436
1150	162.1367
1151	142.4121
1152	125.6978
1153	109.6822
1154	95.72084
1155	90.12003
1156	95.519
1157	105.8995
1158	115.3974
1159	113.6749
1160	100.3563
1161	95.75523
1162	99.92747
1163	92.15918
1164	74.10685
1165	58.04311
1166	46.7203
1167	33.55824
1168	24.97149
1169	19.47052
1170	23.48299
1171	36.02447
1172	54.3432
1173	74.31369
1174	84.4211
1175	79.75683
1176	63.20154
1177	47.7281
1178	28.49243
1179	4.427056
1180	-9.898401
1181	-7.92695
1182	5.799345
1183	24.13503
1184	41.78743
1185	52.75473
1186	67.876
1187	86.13502
1188	92.12801
1189	82.45766
1190	75.73246
1191	75.61464
1192	77.79071
1193	82.87601
1194	90.18162
1195	98.52532
1196	106.4969
1197	115.7869
1198	136.7475
1199	153.9348
1200	154.6166
1201	142.7667
1202	132.0883
1203	128.9173
1204	141.9129
1205	154.6143
1206	151.8201
1207	143.9673
1208	137.6319
1209	142.2607
1210	161.0857
1211	174.6741
1212	173.3267
1213	159.5078
1214	139.2406
1215	139.0883
1216	158.3768
1217	164.864
1218	161.2813
1219	167.934
1220	184.6845
1221	211.0199
1222	234.5637
1223	246.3525
1224	244.2166
1225	241.6207
1226	235.2767
1227	228.4365
1228	228.053
1229	239.037
1230	247.1433
1231	243.0797
1232	245.5121
1233	260.5413
1234	274.614
1235	282.8255
1236	300.1142
1237	322.6123
1238	340.6434
1239	349.8782
1240	366.4457
1241	374.1146
1242	349.4395
1243	313.3836
1244	311.6371
1245	323.2128
1246	311.671
1247	298.4483
1248	297.5945
1249	303.8271
1250	311.926
1251	318.1607
1252	318.1337
1253	310.0719
1254	297.2155
1255	305.2857
1256	334.8501
1257	349.4149
1258	340.4142
1259	321.2055
1260	297.3998
1261	282.9659
1262	274.0866
1263	250.0114
1264	226.702
1265	210.077
1266	204.5721
1267	203.3511
1268	211.17
1269	225.5659
1270	232.3758
1271	223.1367
1272	209.1878
1273	196.0112
1274	182.572
1275	173.4345
1276	171.3485
1277	174.2009
1278	161.2874
1279	149.1987
1280	172.9287
1281	207.4782
1282	211.8597
1283	197.9079
1284	186.242
1285	176.4446
1286	173.3835
1287	174.0817
1288	175.4335
1289	167.7465
1290	150.5381
1291	145.9814
1292	156.0179
1293	152.7688
1294	139.6974
1295	135.609
1296	143.9327
1297	161.5654
1298	183.4679
1299	203.5139
1300	214.8266
1301	218.7175
1302	210.8404
1303	194.9946
1304	167.2883
1305	132.7535
1306	101.4354
1307	86.8272
1308	90.15016
1309	111.7989
1310	132.6201
1311	147.3922
1312	159.6022
1313	161.9952
1314	160.5913
1315	147.2088
1316	122.2366
1317	98.89075
1318	88.89375
1319	81.73663
1320	71.42974
1321	61.68508
1322	54.76967
1323	48.86824
1324	44.84319
1325	38.53252
1326	30.75062
1327	16.92481
1328	9.889682
1329	22.95604
1330	43.41082
1331	51.53418
1332	54.16995
1333	55.99982
1334	57.19605
1335	59.08996
1336	60.28172
1337	59.84111
1338	54.05269
1339	49.31664
1340	63.74921
1341	89.16325
1342	103.8465
1343	109.854
1344	116.5515
1345	126.4431
1346	146.3044
1347	168.8103
1348	189.0658
1349	194.3014
1350	180.3338
1351	162.6876
1352	145.9485
1353	122.8857
1354	100.3958
1355	76.82075
1356	61.34642
1357	49.57018
1358	42.53502
1359	30.67021
1360	24.04934
1361	26.2777
1362	40.50592
1363	64.16114
1364	89.36405
1365	106.6197
1366	117.977
1367	115.5248
1368	105.556
1369	84.32681
1370	48.90234
1371	27.19285
1372	38.95612
1373	65.92838
1374	88.73725
1375	105.0852
1376	107.5498
1377	95.77582
1378	74.42488
1379	66.05453
1380	62.7966
1381	31.13984
1382	-1.982991
1383	-9.599385
1384	-1.020007
1385	6.053801
1386	20.55519
1387	40.87932
1388	63.87522
1389	84.1918
1390	108.4909
1391	125.7776
1392	127.0124
1393	114.8941
1394	112.9202
1395	110.8104
1396	100.0242
1397	94.29146
1398	100.5256
1399	106.9951
1400	107.79
1401	102.8506
1402	96.02206
1403	101.3466
1404	114.3994
1405	120.6615
1406	122.7237
1407	124.5967
1408	135.7248
1409	163.52
1410	189.3929
1411	202.5842
1412	209.7704
1413	211.471
1414	218.2845
1415	227.2009
1416	233.3282
1417	238.0481
1418	246.6662
1419	256.4967
1420	266.0608
1421	279.7973
1422	295.3717
1423	292.7558
1424	273.0678
1425	267.9427
1426	282.1753
1427	306.154
1428	332.9492
1429	352.019
1430	362.5356
1431	368.4535
1432	372.5134
1433	377.2045
1434	374.569
1435	366.5467
1436	367.9153
1437	376.0026
1438	377.0782
1439	380.0973
1440	395.5733
1441	409.9274
1442	413.1372
1443	418.7801
1444	429.3164
1445	431.7482
1446	426.8566
1447	431.2679
1448	441.027
1449	445.9857
1450	452.6422
1451	467.4846
1452	484.2556
1453	498.6342
1454	524.7925
1455	555.666
1456	561.6523
1457	544.0083
1458	542.2277
1459	545.1898
1460	540.2892
1461	524.1357
1462	496.4652
1463	452.4112
1464	402.1603
1465	363.185
1466	346.1523
1467	321.9673
1468	305.6719
1469	297.14
1470	304.8553
1471	323.9448
1472	336.6875
1473	329.1974
1474	312.4195
1475	292.4824
1476	275.0717
1477	264.0824
1478	252.726
1479	240.3888
1480	219.1296
1481	196.0472
1482	176.7448
1483	161.3018
1484	152.2367
1485	144.5389
1486	137.9727
1487	121.7089
1488	109.5488
1489	113.1388
1490	120.2978
1491	117.8614
1492	113.1446
1493	108.7693
1494	109.3484
1495	108.0816
1496	84.24419
1497	47.57489
1498	13.90591
1499	-6.662394
1500	-10.39217
1501	1.522467
1502	24.23184
1503	60.02986
1504	93.94685
1505	111.5989
1506	111.3978
1507	118.1076
1508	118.8355
1509	112.1666
1510	100.1874
1511	87.92549
1512	81.84024
1513	84.56589
1514	89.33398
1515	94.04929
1516	92.08686
1517	97.62325
1518	119.589
1519	131.9083
1520	123.9852
1521	107.1654
1522	89.22657
1523	81.50085
1524	84.35564
1525	88.1517
1526	94.59502
1527	100.842
1528	108.6559
1529	114.3659
1530	108.5092
1531	95.13843
1532	87.92421
1533	93.03294
1534	111.4766
1535	137.4482
1536	160.3342
1537	163.1553
1538	142.8172
1539	124.0271
1540	113.0276
1541	109.8822
1542	113.5335
1543	115.1583
1544	126.7317
1545	147.7394
1546	159.8181
1547	159.007
1548	162.0782
1549	162.3275
1550	155.2476
1551	150.7128
1552	155.5833
1553	155.9959
1554	148.9954
1555	146.08
1556	140.985
1557	113.5722
1558	91.83189
1559	100.9746
1560	111.3936
1561	109.2152
1562	118.9445
1563	140.5415
1564	163.8033
1565	176.9766
1566	175.6146
1567	160.6709
1568	141.256
1569	118.901
1570	100.7761
1571	80.18839
1572	71.92078
1573	84.46084
1574	105.2529
1575	112.4625
1576	111.9944
1577	106.5544
1578	106.5826
1579	110.7979
1580	107.4055
1581	104.2177
1582	109.5351
1583	124.686
1584	147.3976
1585	168.0088
1586	177.1506
1587	177.7074
1588	166.9037
1589	152.26
1590	136.6579
1591	125.6922
1592	124.0224
1593	133.9495
1594	145.9404
1595	162.8486
1596	194.5771
1597	219.9136
1598	225.1694
1599	221.6157
1600	212.5504
1601	189.0258
1602	159.4408
1603	137.2907
1604	121.524
1605	103.395
1606	94.69629
1607	97.31991
1608	94.61831
1609	89.11727
1610	91.33399
1611	95.14383
1612	91.61641
1613	89.77695
1614	93.94448
1615	103.1191
1616	113.2142
1617	116.9479
1618	117.2681
1619	121.5515
1620	132.6438
1621	148.9279
1622	153.0978
1623	137.5166
1624	103.7237
1625	70.53909
1626	58.60653
1627	51.01225
1628	38.73012
1629	34.4452
1630	44.05791
1631	69.65552
1632	93.49449
1633	96.06167
1634	88.22548
1635	80.76834
1636	85.63303
1637	102.0966
1638	115.6347
1639	125.0154
1640	133.3436
1641	136.6733
1642	133.6281
1643	116.6912
1644	90.15183
1645	64.04467
1646	41.31452
1647	19.06146
1648	3.369648
1649	-0.2399635
1650	16.3175
1651	47.05948
1652	67.91636
1653	81.55602
1654	95.22158
1655	104.7131
1656	108.2411
1657	108.2818
1658	105.5526
1659	103.7853
1660	109.8266
1661	127.9904
1662	126.9876
1663	101.9058
1664	84.75169
1665	78.08981
1666	70.44522
1667	66.35193
1668	65.17695
1669	74.1376
1670	92.05753
1671	114.878
1672	122.1121
1673	97.0331
1674	66.63785
1675	54.28341
1676	52.04964
1677	59.75976
1678	64.79163
1679	69.47565
1680	74.5014
1681	85.84871
1682	101.8908
1683	105.2914
1684	98.81133
1685	103.5978
1686	109.5925
1687	110.4195
1688	104.6361
1689	93.82242
1690	85.27718
1691	79.19403
1692	69.79672
1693	69.7409
1694	83.03182
1695	101.7632
1696	114.7264
1697	107.7058
1698	97.61366
1699	107.5447
1700	124.2846
1701	137.8397
1702	134.3018
1703	124.7991
1704	141.0141
1705	159.7972
1706	163.0808
1707	157.2275
1708	146.3437
1709	143.6797
1710	142.9731
1711	133.6904
1712	130.86
1713	141.3189
1714	164.8588
1715	191.0662
1716	209.7667
1717	214.6247
1718	207.6319
1719	191.8467
1720	170.7909
1721	143.19
1722	124.0319
1723	122.7153
1724	126.6583
1725	126.1801
1726	120.197
1727	108.0879
1728	90.57958
1729	76.36681
1730	71.86601
1731	66.4337
1732	65.00507
1733	82.89722
1734	102.0711
1735	101.361
1736	93.44061
1737	86.90715
1738	93.34441
1739	104.8756
1740	102.6988
1741	106.0699
1742	123.4772
1743	140.5945
1744	144.4348
1745	127.8552
1746	99.7588
1747	78.08858
1748	68.20264
1749	73.00679
1750	76.98405
1751	80.82046
1752	83.38358
1753	84.38959
1754	82.35248
1755	70.6435
1756	55.01434
1757	47.6476
1758	35.7485
1759	14.15264
1760	6.639287
1761	12.76188
1762	6.150475
1763	-0.9580283
1764	-0.01421881
1765	3.630379
1766	11.70092
1767	36.09807
1768	59.75833
1769	62.98481
1770	77.19069
1771	107.8271
1772	122.7062
1773	116.6601
1774	101.1887
1775	88.43111
1776	88.23695
1777	81.98639
1778	71.85589
1779	63.37624
1780	59.19966
1781	57.8624
1782	40.59196
1783	15.23577
1784	4.345276
1785	8.684152
1786	19.86212
1787	35.75678
1788	53.91721
1789	81.36697
1790	107.3057
1791	125.3267
1792	132.1983
1793	128.8209
1794	132.3563
1795	126.9569
1796	95.63783
1797	74.43771
1798	78.42794
1799	78.52229
1800	84.30048
1801	107.9088
1802	123.5135
1803	118.5057
1804	116.8764
1805	110.6289
1806	86.04823
1807	57.1524
1808	34.98754
1809	10.69227
1810	-3.286288
1811	-0.9894357
1812	16.42721
1813	39.12899
1814	66.43684
1815	89.98779
1816	116.0681
1817	124.669
1818	112.9128
1819	107.8519
1820	111.6538
1821	107.8119
1822	106.4414
1823	113.103
1824	117.3617
1825	118.3935
1826	123.6622
1827	130.3415
1828	136.4522
1829	137.3051
1830	135.0831
1831	142.6631
1832	151.9435
1833	155.0346
1834	144.0912
1835	124.3156
1836	114.8411
1837	112.6444
1838	110.8502
1839	100.9154
1840	86.967
1841	83.01257
1842	85.59743
1843	86.83469
1844	72.73853
1845	50.18596
1846	43.46405
1847	49.35944
1848	58.60102
1849	78.09143
1850	96.25587
1851	94.29396
1852	78.55253
1853	63.71675
1854	59.80036
1855	71.76599
1856	93.79395
1857	114.1508
1858	120.1932
1859	122.3976
1860	118.8898
1861	111.2898
1862	93.80354
1863	68.85207
1864	55.67097
1865	56.80586
1866	55.37307
1867	52.51478
1868	48.26301
1869	59.16376
1870	82.67623
1871	108.7177
1872	123.5388
1873	119.4514
1874	106.3503
1875	88.78122
1876	75.1984
1877	57.21899
1878	37.54895
1879	33.16709
1880	45.12473
1881	60.28812
1882	82.14423
1883	103.1466
1884	110.862
1885	113.0308
1886	126.8139
1887	130.0991
1888	118.8468
1889	106.7765
1890	92.50323
1891	77.13359
1892	65.63313
1893	59.29647
1894	47.60336
1895	36.87846
1896	30.88526
1897	41.10387
1898	57.14914
1899	51.97834
1900	51.11131
1901	65.5899
1902	69.80972
1903	64.64201
1904	61.33166
1905	55.73985
1906	49.11638
1907	44.6929
1908	40.39506
1909	31.83351
1910	47.95535
1911	80.78197
1912	84.21643
1913	70.7542
1914	60.56125
1915	52.8077
1916	45.2133
1917	23.59451
1918	5.341868
1919	1.38903
1920	4.926172
1921	12.76183
1922	14.6673
1923	20.52559
1924	30.67389
1925	33.36283
1926	38.81449
1927	59.36853
1928	83.34793
1929	100.5105
1930	114.2406
1931	115.2144
1932	104.7367
1933	92.52563
1934	74.46619
1935	37.11432
1936	14.48235
1937	22.9442
1938	34.78001
1939	43.67
1940	40.61709
1941	38.58751
1942	41.40381
1943	46.25965
1944	45.46144
1945	35.13517
1946	25.83327
1947	24.02978
1948	30.95146
1949	40.02819
1950	45.37823
1951	52.91234
1952	58.93526
1953	61.56234
1954	60.64448
1955	55.39268
1956	43.43717
1957	38.44337
1958	49.00636
1959	57.93301
1960	63.29144
1961	70.10023
1962	75.05988
1963	75.30574
1964	66.9256
1965	55.44865
1966	49.22055
1967	40.81028
1968	29.65836
1969	10.4233
1970	5.604332
1971	21.35877
1972	21.32307
1973	15.69212
1974	25.03242
1975	38.87585
1976	49.62979
1977	51.71656
1978	55.87937
1979	70.24434
1980	74.56886
1981	63.48143
1982	42.14651
1983	33.85682
1984	46.11607
1985	53.40212
1986	59.92236
1987	68.68984
1988	88.22726
1989	106.3293
1990	106.4939
1991	94.47458
1992	81.72594
1993	87.25578
1994	96.42424
1995	89.80238
1996	80.05341
1997	69.09232
1998	51.33733
1999	50.10014
2000	68.61028
2001	72.06539
2002	66.13582
2003	63.24999
2004	49.82009
2005	30.08595
2006	15.82256
2007	11.79056
2008	17.83893
2009	22.84437
2010	29.60592
2011	40.51411
2012	50.36705
2013	52.33162
2014	41.79134
2015	30.1363
2016	28.93941
2017	49.63462
2018	57.07967
2019	19.17825
2020	-0.2158146
2021	9.221379
2022	20.01754
2023	31.17257
2024	39.73042
2025	61.05877
2026	81.91914
2027	88.72103
2028	72.59491
2029	45.13023
2030	35.52221
2031	19.86919
2032	-0.2707016
2033	1.869919
2034	23.54889
2035	50.09037
2036	75.30949
2037	86.49178
2038	81.36044
2039	70.26842
2040	59.47606
2041	45.35095
2042	32.53588
2043	25.13908
2044	23.8469
2045	37.54839
2046	67.06241
2047	82.89459
2048	79.17803
2049	78.3105
2050	85.527
2051	99.37215
2052	98.45093
2053	86.53863
2054	74.4668
2055	64.64702
2056	54.74905
2057	35.52476
2058	18.18142
2059	9.205593
2060	1.375449
2061	7.51914
2062	26.7914
2063	42.95469
2064	57.4997
2065	75.92665
2066	87.88809
2067	85.52551
2068	70.86794
2069	57.2221
2070	52.50919
2071	46.93985
2072	43.11247
2073	40.89912
2074	39.87152
2075	41.79848
2076	46.64038
2077	45.47342
2078	45.68804
2079	67.4921
2080	79.5201
2081	68.58333
2082	50.8271
2083	34.21094
2084	28.57471
2085	32.28297
2086	49.84084
2087	77.12016
2088	105.8712
2089	122.2951
2090	124.846
2091	106.2647
2092	79.70156
2093	74.37891
2094	73.67683
2095	65.41665
2096	73.19279
2097	88.75338
2098	96.54637
2099	95.40861
2100	85.23081
2101	73.12656
2102	62.38483
2103	53.64558
2104	34.70524
2105	24.3522
2106	30.05231
2107	35.01802
2108	48.3721
2109	70.66486
2110	78.70165
2111	67.42039
2112	46.88131
2113	33.61936
2114	35.55758
2115	43.49566
2116	55.92869
2117	68.36686
2118	87.20061
2119	87.61327
2120	64.3801
2121	49.20209
2122	47.53883
2123	57.27236
2124	67.80204
2125	75.50105
2126	79.74789
2127	75.17079
2128	61.16437
2129	41.00708
2130	33.3738
2131	42.70731
2132	47.29804
2133	47.83155
2134	45.32573
2135	48.57978
2136	56.29422
2137	63.12062
2138	55.94137
2139	40.37012
2140	30.29912
2141	21.15081
2142	13.44888
2143	3.118474
2144	0.2683434
2145	7.073573
2146	17.79452
2147	21.04817
2148	15.83194
2149	24.07226
2150	30.15147
2151	24.8306
2152	18.17181
2153	14.82866
2154	18.03988
2155	21.83903
2156	25.57371
2157	29.8227
2158	50.80637
2159	72.07813
2160	67.28254
2161	53.06065
2162	39.9095
2163	35.80684
2164	28.46409
2165	15.67228
2166	0.5824776
2167	1.811925
2168	22.23875
2169	41.76957
2170	47.98311
2171	39.16891
2172	48.85988
2173	59.50351
2174	53.14162
2175	38.83536
2176	30.24866
2177	39.05965
2178	47.96136
2179	45.76919
2180	26.03303
2181	24.85505
2182	42.2108
2183	52.3136
2184	61.52789
2185	68.55904
2186	74.75916
2187	73.02155
2188	62.49667
2189	45.73141
2190	37.19667
2191	43.05567
2192	50.13156
2193	55.35999
2194	54.36507
2195	48.16981
2196	44.2458
2197	46.80527
2198	38.10062
2199	29.80273
2200	33.26527
2201	30.5645
2202	25.10321
2203	23.23104
2204	20.94736
2205	23.8466
2206	36.1229
2207	42.99513
2208	44.0884
2209	48.64468
2210	30.99312
2211	2.691616
2212	-3.403155
2213	2.345378
2214	13.57326
2215	21.04973
2216	30.52579
2217	42.05435
2218	58.22779
2219	52.88166
2220	30.83081
2221	33.23212
2222	47.21956
2223	57.17307
2224	45.81718
2225	31.50626
2226	30.28959
2227	42.41587
2228	54.47818
2229	58.59254
2230	75.62818
2231	91.63625
2232	94.96358
2233	84.1904
2234	72.38801
2235	71.40826
2236	67.95394
2237	66.34473
2238	67.68742
2239	67.00173
2240	59.55613
2241	44.83499
2242	29.5728
2243	22.36596
2244	24.37103
2245	13.6934
2246	14.97528
2247	44.23677
2248	64.8312
2249	71.71215
2250	70.94696
2251	72.47356
2252	71.90726
2253	65.17141
2254	50.00275
2255	40.06675
2256	44.35099
2257	28.96078
2258	8.794641
2259	5.312802
2260	3.719042
2261	3.857149
2262	4.5476
2263	9.566501
2264	19.63371
2265	31.98126
2266	40.15258
2267	45.56564
2268	51.7869
2269	39.53219
2270	26.54735
2271	36.15852
2272	54.4455
2273	75.89477
2274	93.285
2275	115.7705
2276	119.1712
2277	89.73279
2278	50.02377
2279	24.98116
2280	31.60517
2281	48.93948
2282	70.92212
2283	89.26402
2284	122.0147
2285	141.5446
2286	128.4306
2287	101.2217
2288	73.25122
2289	57.51672
2290	29.9373
2291	14.16873
2292	25.43632
2293	53.24081
2294	76.61378
2295	76.37721
2296	63.94847
2297	51.1745
2298	49.03884
2299	44.50852
2300	51.218
2301	72.00343
2302	101.4779
2303	114.8805
2304	102.7095
2305	87.50562
2306	80.64108
2307	88.98698
2308	104.8656
2309	110.5228
2310	98.43439
2311	79.5015
2312	65.64668
2313	60.01093
2314	48.01241
2315	52.30436
2316	68.59246
2317	74.36557
2318	76.01974
2319	75.06956
2320	75.34857
2321	88.32727
2322	110.6696
2323	129.3186
2324	125.5229
2325	112.9659
2326	116.2764
2327	120.54
2328	108.9534
2329	76.80796
2330	68.76836
2331	65.30067
2332	44.58079
2333	7.770384
2334	-1.704648
2335	32.21053
2336	65.53618
2337	77.88014
2338	72.72865
2339	104.8167
2340	118.4818
2341	103.1393
2342	99.99492
2343	101.0464
2344	109.8676
2345	130.0188
2346	143.6964
2347	143.9687
2348	136.3992
2349	126.2892
2350	119.3135
2351	118.334
2352	112.0465
2353	111.4688
2354	123.1077
2355	128.7921
2356	122.2825
2357	107.1161
2358	102.3291
2359	103.4288
2360	107.6667
2361	117.9685
2362	121.1647
2363	116.0384
2364	116.6408
2365	112.3823
2366	110.7174
2367	125.1686
2368	139.1655
2369	155.3322
2370	177.5446
2371	180.7577
2372	172.9864
2373	169.1298
2374	153.5698
2375	132.7887
2376	115.6983
2377	101.759
2378	103.989
2379	116.6458
2380	115.0101
2381	116.1049
2382	120.1597
2383	117.7973
2384	108.4987
2385	100.6386
2386	103.0768
2387	98.68159
2388	89.13459
2389	80.10123
2390	73.57731
2391	78.77709
2392	96.4078
2393	117.6281
2394	135.1838
2395	138.1152
2396	121.2589
2397	101.9331
2398	87.654
2399	75.28154
2400	87.71906
2401	113.4496
2402	123.3161
2403	102.7577
2404	73.79883
2405	59.65012
2406	36.87474
2407	25.45817
2408	35.34592
2409	60.58727
2410	89.15826
2411	100.2929
2412	83.14458
2413	70.01569
2414	51.73632
2415	18.14359
2416	-1.67378
2417	4.896533
2418	32.74726
2419	66.36608
2420	88.33568
2421	92.65132
2422	95.97632
2423	89.52554
2424	68.09769
2425	33.70683
2426	31.80103
2427	44.13499
2428	40.21168
2429	33.4939
2430	34.13984
2431	43.2169
2432	44.99974
2433	28.95744
2434	8.003781
2435	9.456861
2436	20.75693
2437	34.774
2438	43.2634
2439	53.65993
2440	57.13624
2441	52.16558
2442	50.88929
2443	43.93292
2444	41.60039
2445	64.59727
2446	75.3209
2447	75.46312
2448	80.14009
2449	73.31787
2450	59.69658
2451	48.09758
2452	39.72807
2453	30.79664
2454	29.21583
2455	49.56401
2456	73.86784
2457	87.70663
2458	84.4877
2459	77.48808
2460	63.8939
2461	44.70389
2462	15.06299
2463	10.72967
2464	26.87485
2465	24.8199
2466	25.46002
2467	36.64154
2468	56.14403
2469	62.89423
2470	63.1398
2471	64.83728
2472	72.21028
2473	46.98766
2474	14.00856
2475	23.15511
2476	32.64032
2477	41.13172
2478	48.87739
2479	59.32126
2480	60.02314
2481	46.83704
2482	27.06185
2483	17.98302
2484	13.75479
2485	3.013408
2486	1.507194
2487	15.81664
2488	29.51358
2489	6.151802
2490	7.379488
2491	30.43919
2492	37.46175
2493	38.28818
2494	27.16466
2495	15.40867
2496	39.14401
2497	37.86505
2498	18.80461
2499	36.31706
2500	42.21084
2501	37.10541
2502	32.98746
2503	37.78371
2504	53.06481
2505	68.72474
2506	70.71023
2507	89.80022
2508	94.99012
2509	65.42226
2510	59.96097
2511	63.84836
2512	62.12544
2513	46.1793
2514	35.70614
2515	40.49355
2516	57.11938
2517	60.82791
2518	69.22855
2519	85.38268
2520	92.38573
2521	81.8519
2522	61.17094
2523	49.07069
2524	51.60365
2525	63.80668
2526	75.04477
2527	78.94016
2528	78.74658
2529	68.58389
2530	50.60072
2531	53.30482
2532	64.83082
2533	76.61092
2534	92.31119
2535	81.80853
2536	69.43726
2537	81.07758
2538	69.85416
2539	49.37541
2540	27.74959
2541	3.642117
2542	-3.090901
2543	10.35683
2544	33.29734
2545	63.95604
2546	79.00703
2547	74.74051
2548	69.51027
2549	70.80968
2550	73.63938
2551	73.25577
2552	78.70369
2553	56.78518
2554	24.39999
2555	21.15553
2556	19.0888
2557	36.79684
2558	66.51248
2559	71.15822
2560	78.63692
2561	80.35634
2562	65.72832
2563	59.39795
2564	46.81013
2565	31.1874
2566	29.77129
2567	11.0347
2568	5.854199
2569	28.67498
2570	24.74599
2571	28.44227
2572	45.23401
2573	61.89174
2574	83.38389
2575	90.15781
2576	81.83566
2577	86.15313
2578	79.70222
2579	68.93353
2580	66.17464
2581	63.16135
2582	67.83106
2583	73.72624
2584	69.63414
2585	76.26615
2586	81.42171
2587	76.82347
2588	70.56987
2589	55.32305
2590	36.50938
2591	26.83595
2592	40.58888
2593	74.83194
2594	104.8116
2595	106.7347
2596	105.781
2597	94.16409
2598	72.65646
2599	50.20554
2600	61.78841
2601	88.88484
2602	96.91309
2603	93.4011
2604	82.12902
2605	70.83134
2606	65.69174
2607	72.8716
2608	92.6757
2609	106.7492
2610	92.77464
2611	95.23249
2612	98.49443
2613	88.54533
2614	85.71516
2615	96.06116
2616	112.8783
2617	119.0155
2618	102.3733
2619	88.88978
2620	77.1264
2621	45.19247
2622	8.367769
2623	-8.123569
2624	3.909929
2625	26.32685
2626	45.78624
2627	75.9508
2628	114.232
2629	120.4212
2630	114.9855
2631	108.6794
2632	105.4925
2633	92.48613
2634	80.3646
2635	79.46618
2636	90.49624
2637	87.14935
2638	90.21143
2639	105.3637
2640	118.3202
2641	111.3956
2642	103.8688
2643	98.86361
2644	70.90927
2645	47.69713
2646	29.90228
2647	19.70226
2648	29.80833
2649	14.05898
2650	-1.189542
2651	15.51996
2652	34.812
2653	67.14841
2654	92.0145
2655	91.82513
2656	97.68439
2657	85.21038
2658	52.12155
2659	17.73772
2660	15.25361
2661	36.88103
2662	63.52005
2663	77.94441
2664	82.20084
2665	82.86426
2666	72.71109
2667	37.77055
2668	20.33061
2669	24.78686
2670	40.91341
2671	53.91052
2672	54.3303
2673	59.64495
2674	72.40874
2675	67.97979
2676	57.76801
2677	45.34857
2678	36.31266
2679	33.38829
2680	23.00702
2681	36.95546
2682	85.73648
2683	126.7942
2684	146.8003
2685	129.5822
2686	84.0509
2687	41.28786
2688	11.58178
2689	7.810272
2690	28.18022
2691	59.33171
2692	87.2073
2693	88.55308
2694	63.34797
2695	46.82125
2696	55.04939
2697	71.19282
2698	72.34816
2699	67.05089
2700	70.83274
2701	76.45818
2702	73.8975
2703	70.10495
2704	66.62876
2705	70.18565
2706	75.00687
2707	57.17068
2708	52.73986
2709	58.24797
2710	59.51009
2711	55.25894
2712	43.432
2713	40.69678
2714	48.89364
2715	39.12597
2716	37.29314
2717	32.48905
2718	24.91207
2719	39.3674
2720	28.48545
2721	20.84328
2722	40.961
2723	73.53043
2724	101.6377
2725	110.9613
2726	111.3788
2727	125.1142
2728	100.0327
2729	66.35932
2730	61.28434
2731	88.06023
2732	94.36071
2733	100.8918
2734	114.5043
2735	120.7934
2736	101.4104
2737	81.62338
2738	77.44057
2739	82.90868
2740	76.25517
2741	88.37942
2742	100.1193
2743	82.94521
2744	56.6987
2745	30.57226
2746	9.314564
2747	1.919551
2748	26.06065
2749	55.64229
2750	74.55431
2751	77.65611
2752	74.37088
2753	66.49429
2754	66.93237
2755	74.26633
2756	71.79279
2757	63.40873
2758	64.51974
2759	74.72137
2760	81.45056
2761	91.16516
2762	125.5754
2763	147.7929
2764	127.1066
2765	120.8115
2766	105.4676
2767	100.732
2768	110.3197
2769	99.09728
2770	97.01078
2771	95.61492
2772	91.90934
2773	94.63607
2774	90.21639
2775	84.1237
2776	79.85686
2777	72.39887
2778	39.52249
2779	29.51353
2780	39.39668
2781	46.90969
2782	55.24694
2783	41.72429
2784	36.67664
2785	43.35453
2786	22.48066
2787	10.46242
2788	6.832964
2789	17.08176
2790	43.16909
2791	67.48871
2792	87.75481
2793	101.494
2794	100.1087
2795	67.70493
2796	31.53794
2797	17.75211
2798	25.12739
2799	29.38538
2800	66.08055
2801	109.3812
2802	122.0683
2803	94.88147
2804	76.92433
2805	49.88713
2806	22.28428
2807	10.22189
2808	22.72809
2809	39.264
2810	46.79152
2811	52.63913
2812	63.41944
2813	30.75598
2814	14.98839
2815	14.29934
2816	20.04085
2817	58.30746
2818	90.8568
2819	99.61982
2820	72.76698
2821	21.22302
2822	-4.857667
2823	-3.829879
2824	3.64212
2825	6.482901
2826	29.3748
2827	39.07755
2828	39.40677
2829	40.65814
2830	48.90218
2831	66.37922
2832	52.16986
2833	31.69439
2834	28.64372
2835	13.18689
2836	0.6616638
2837	5.437702
2838	21.12918
2839	31.64979
2840	48.56424
2841	45.84429
2842	30.44876
2843	21.16739
2844	26.18256
2845	44.45675
2846	55.94921
2847	65.07731
2848	81.10113
2849	82.30423
2850	62.43957
2851	47.25218
2852	45.21441
2853	35.6826
2854	20.61942
2855	4.16436
2856	17.01143
2857	53.99923
2858	55.00501
2859	54.41151
2860	60.64808
2861	63.77082
2862	50.70432
2863	36.12065
2864	45.49691
2865	59.6767
2866	71.6245
2867	96.21503
2868	129.851
2869	136.2316
2870	130.8846
2871	134.4374
2872	137.1308
2873	135.34
2874	136.7092
2875	135.7858
2876	120.5264
2877	89.61657
2878	71.79171
2879	72.78484
2880	81.56525
2881	84.13008
2882	82.58166
2883	92.59817
2884	105.9563
2885	114.9218
2886	121.5381
2887	131.405
2888	133.4649
2889	135.4074
2890	148.1076
2891	172.0756
2892	201.0841
2893	197.8137
2894	178.8196
2895	161.1854
2896	129.0166
2897	114.8695
2898	123.6276
2899	148.1017
2900	164.6048
2901	148.4155
2902	134.7463
2903	108.5029
2904	99.01513
2905	126.6089
2906	155.2429
2907	172.6139
2908	180.6168
2909	166.1061
2910	128.043
2911	104.7575
2912	122.7083
2913	148.925
2914	159.0094
2915	153.7017
2916	143.3244
2917	129.9394
2918	128.3111
2919	138.0385
2920	149.4065
2921	160.8491
2922	165.7994
2923	159.1393
2924	149.9739
2925	147.1649
2926	141.3586
2927	121.4959
2928	118.0477
2929	131.4137
2930	141.2583
2931	142.7447
2932	137.3597
2933	136.3985
2934	139.8458
2935	152.3672
2936	185.7211
2937	194.0606
2938	180.2539
2939	151.5686
2940	120.2416
2941	101.2152
2942	105.6781
2943	118.9692
2944	141.6577
2945	154.8742
2946	134.3284
2947	131.2584
2948	117.9519
2949	105.6509
2950	89.17327
2951	66.58378
2952	101.5272
2953	103.3424
2954	108.5121
2955	131.7597
2956	144.4999
2957	133.4841
2958	92.9471
2959	83.59918
2960	96.2133
2961	90.17534
2962	75.25661
2963	71.08817
2964	69.76069
2965	49.69907
2966	23.02893
2967	25.55107
2968	24.27808
2969	36.92217
2970	54.56046
2971	79.87827
2972	114.6423
2973	125.6102
2974	129.463
2975	105.5492
2976	81.29551
2977	78.36514
2978	66.61348
2979	63.4049
2980	67.58162
2981	83.75718
2982	95.54497
2983	83.89845
2984	85.11337
2985	101.7491
2986	119.2468
2987	122.8323
2988	119.4128
2989	127.989
2990	104.6937
2991	87.77964
2992	91.21172
2993	100.5133
2994	96.49397
2995	84.19182
2996	78.31355
2997	56.21457
2998	24.47145
2999	5.979156
3000	-0.5560757
3001	26.84705
3002	59.55505
3003	91.47341
3004	107.866
3005	92.72333
3006	77.95381
3007	64.15866
3008	63.15022
3009	57.81158
3010	51.31621
3011	76.39651
3012	72.07301
3013	78.85655
3014	92.01358
3015	98.21987
3016	85.01128
3017	45.05813
3018	25.67317
3019	10.07388
3020	5.477462
3021	10.33688
3022	10.51697
3023	19.54958
3024	17.25332
3025	14.70406
3026	35.45969
3027	73.82003
3028	91.65221
3029	86.43578
3030	80.23462
3031	67.78912
3032	51.29656
3033	41.39285
3034	40.92693
3035	30.34999
3036	32.94096
3037	40.93642
3038	53.70057
3039	70.49708
3040	74.67628
3041	67.76197
3042	62.57864
3043	72.26563
3044	79.37595
3045	82.9487
3046	124.8926
3047	132.9325
3048	123.8918
3049	101.5252
3050	90.03296
3051	97.82336
3052	86.51248
3053	86.4702
3054	87.43409
3055	73.23247
3056	51.51155
3057	38.72726
3058	27.18538
3059	22.90843
3060	12.59229
3061	16.93999
3062	27.07748
3063	34.4106
3064	61.27287
3065	52.72226
3066	62.07901
3067	72.77821
3068	80.23626
3069	85.96955
3070	78.91077
3071	79.35568
3072	77.77481
3073	85.92015
3074	102.6006
3075	107.3066
3076	86.61449
3077	65.36446
3078	40.73081
3079	24.48052
3080	12.40682
3081	13.18821
3082	27.62085
3083	16.56816
3084	46.53339
3085	79.98588
3086	98.71229
3087	99.52028
3088	79.38474
3089	35.77976
3090	-1.066219
3091	41.80047
3092	89.11387
3093	118.2945
3094	144.3561
3095	149.222
3096	118.0566
3097	71.32397
3098	81.60234
3099	94.41203
3100	88.81435
3101	96.72913
3102	95.39739
3103	78.98896
3104	77.94569
3105	98.37667
3106	100.6643
3107	81.85815
3108	84.10672
3109	85.31234
3110	64.54437
3111	72.29187
3112	80.44672
3113	70.64511
3114	64.02462
3115	75.29398
3116	89.20732
3117	78.42087
3118	41.43399
3119	15.09884
3120	9.548632
3121	9.017311
3122	25.14394
3123	53.78934
3124	62.59
3125	67.35686
3126	71.39753
3127	54.95039
3128	27.08565
3129	43.30846
3130	52.06777
3131	71.45929
3132	91.14548
3133	95.2539
3134	75.68454
3135	51.57734
3136	57.89261
3137	29.45646
3138	19.40569
3139	18.48735
3140	23.51024
3141	35.29265
3142	53.53161
3143	88.02074
3144	83.55623
3145	71.97585
3146	63.20106
3147	47.98985
3148	31.18949
3149	32.45563
3150	47.01217
3151	64.09153
3152	58.41792
3153	70.05247
3154	69.6962
3155	40.79754
3156	22.18393
3157	26.98008
3158	49.6868
3159	45.53015
3160	72.25163
3161	79.82429
3162	49.05442
3163	25.05074
3164	18.27272
3165	18.30687
3166	24.85953
3167	41.99621
3168	47.86975
3169	37.66905
3170	21.7398
3171	7.170404
3172	1.681871
3173	20.11419
3174	41.4551
3175	64.42759
3176	78.9677
3177	78.22095
3178	69.33656
3179	61.69036
3180	50.83993
3181	59.54896
3182	75.95205
3183	101.2541
3184	117.8345
3185	109.9579
3186	83.78634
3187	53.4166
3188	47.82633
3189	45.39349
3190	62.98965
3191	75.6022
3192	65.55444
3193	51.00425
3194	57.28888
3195	71.63018
3196	48.33384
3197	47.35829
3198	29.90775
3199	12.40658
3200	16.4844
